HRV_MeanNN,HRV_SDNN,HRV_SDANN1,HRV_SDNNI1,HRV_SDANN2,HRV_SDNNI2,HRV_SDANN5,HRV_SDNNI5,HRV_RMSSD,HRV_SDSD,HRV_CVNN,HRV_CVSD,HRV_MedianNN,HRV_MadNN,HRV_MCVNN,HRV_IQRNN,HRV_pNN50,HRV_pNN20,HRV_HTI,HRV_TINN,HRV_ULF,HRV_VLF,HRV_LF,HRV_HF,HRV_VHF,HRV_LFHF,HRV_LFn,HRV_HFn,HRV_LnHF,Time,TimeStamp,Delta_TP9,Delta_AF7,Delta_AF8,Delta_TP10,Theta_TP9,Theta_AF7,Theta_AF8,Theta_TP10,Alpha_TP9,Alpha_AF7,Alpha_AF8,Alpha_TP10,Beta_TP9,Beta_AF7,Beta_AF8,Beta_TP10,Gamma_TP9,Gamma_AF7,Gamma_AF8,Gamma_TP10,RAW_TP9,RAW_AF7,RAW_AF8,RAW_TP10,AUX_RIGHT,Accelerometer_X,Accelerometer_Y,Accelerometer_Z,Gyro_X,Gyro_Y,Gyro_Z,Attention,Meditation,A_M
736.372269705603,55.6884001036405,,,,,,,29.69951317328248,29.79079171943129,0.07562533570948342,0.040332199344166174,746.1538461538463,51.32076923076927,0.06878041237113408,75.0,9.876543209876543,50.0,14.727272727272727,273.4375,,,0.030698313025823393,0.011310791515753314,0.0006179863131505118,2.714072926113769,0.7201597015016341,0.26534279700907576,-4.481998007593454,2021-10-21 15:41:30,2021-10-21 15:41:30.003,0.9781242290135548,0.9779989319478348,1.023029383845616,0.8166597713146065,0.1424694136012581,0.11420286145353699,0.3966338453253874,0.3356126593597173,0.2436954371231695,0.272395987147717,0.5173932597829434,0.6052643073855343,0.8236260555251608,0.7207962528039267,0.906209336903492,0.7853770111889709,0.6596951421484244,0.3380585291108513,0.5322896813416348,0.6470072320859218,825.2014652014653,808.2783882783882,811.9047619047618,854.6153846153846,840.9157509157509,-0.544678,-0.149231,0.832825,3.783264,-4.740295,0.8822629999999999,69.0,27.0,42.0
736.6096866096866,55.77927520832151,,,,,,,29.69951317328248,29.791562764513177,0.07572433029634829,0.04031919986007406,746.1538461538463,51.32076923076927,0.06878041237113408,75.0,9.876543209876543,50.0,14.727272727272727,273.4375,,,0.03078458523745735,0.01145439130308228,0.0006435407975290152,2.6875793241997483,0.7178819516299376,0.2671109816800267,-4.469382102587005,2021-10-21 15:41:31,2021-10-21 15:41:31.013,1.150126436479358,1.2430908569246741,1.082052944693096,0.8587381968155605,0.5210508847269884,0.4542321236518136,0.4709044815812082,0.4126772525830488,0.7808821960866438,0.3844447960644371,0.4294304993783917,0.5133002125159717,1.058135286157174,0.8240738547555906,0.8642201794629213,0.8982243553099182,0.6920216579201262,0.4439316698136723,0.5223903467501806,0.5964523097670283,781.6849816849817,812.3076923076924,811.9047619047618,751.8681318681319,780.8791208791209,-0.54303,-0.152161,0.833374,3.297272,-4.717865,1.128998,69.0,23.0,46.0
736.693741041567,55.98267144724821,,,,,,,29.711382872383265,29.804629428916503,0.07599178373376386,0.040330711688110886,746.1538461538463,57.02307692307691,0.0764226804123711,76.9230769230769,9.937888198757765,49.68944099378882,14.636363636363635,273.4375,,,0.030537764741376008,0.011549670322619924,0.0006584571391108775,2.644037785352892,0.7144023242344792,0.2701936894366773,-4.461098385917818,2021-10-21 15:41:32,2021-10-21 15:41:32.055,0.8199075871367325,0.8866920012810593,0.958109773023796,0.7106651297700202,0.2482018366868017,0.1769044065711794,0.3777471155972444,0.21049250427717892,0.752571758024468,0.3139973451040875,0.3229169847513096,0.3434500154507725,0.9737251271007096,0.7985923724224482,0.8926473298510248,0.9124568735952584,0.7484969161890624,0.5650869092945711,0.7545481375708614,0.6841023040431156,792.9670329670329,794.1758241758242,772.4175824175826,822.7838827838829,912.6373626373628,-0.549744,-0.15673800000000002,0.8246459999999999,3.3197019999999995,-4.830017,1.0243229999999999,67.0,14.000000000000002,53.0
736.372269705603,55.76094929274583,,,,,,,29.69951317328248,29.791562764513177,0.0757238581445207,0.040332199344166174,746.1538461538463,51.32076923076927,0.06878041237113408,75.0,9.876543209876543,50.0,14.727272727272727,273.4375,,,0.029141121207477187,0.011187393817450614,0.0006335855377990769,2.604817679880145,0.7114166707064311,0.27311572560393765,-4.492967686603802,2021-10-21 15:41:33,2021-10-21 15:41:33.020,0.6305552072524703,0.8256179367074357,0.966597621255738,0.7797257933805252,0.0845879841698909,0.2116322790965289,0.2948348384687426,0.3081067965002861,0.5315719581643461,0.2566520701744451,0.4068967934404739,0.4723954552186953,0.9958310173966533,0.7205822495914068,0.8950463395977064,0.9438781428194608,0.6298957436585999,0.6084286643993824,0.7437252582025404,0.5972555722501569,842.9304029304027,783.2967032967032,827.2161172161173,822.7838827838829,696.6666666666667,-0.545654,-0.154419,0.833923,3.3496089999999996,-4.82254,1.001892,68.0,20.0,48.0
736.3247863247863,55.74925091464634,,,,,,,29.65616975558403,29.748353463577875,0.07571285382488244,0.040275935709847145,746.1538461538463,51.32076923076927,0.06878041237113408,75.0,9.876543209876543,50.0,16.2,281.25,,,0.02775865944124881,0.010857817669487659,0.0005966478378112921,2.556559732924548,0.7078920508801948,0.2768924354724189,-4.5228699359139855,2021-10-21 15:41:34,2021-10-21 15:41:34.042,0.9445171056435088,1.2943259537206921,1.245333240887802,1.134495814050917,0.5075513668537114,0.6176352224992214,0.3044105259149154,0.5759812168877773,0.7180949852775519,0.2470159649667253,0.3574359703486751,0.5989941983050864,1.0072394056105969,0.7273383867407454,0.8740358575494147,0.9263689033295376,0.9319717449861584,0.612841290579969,0.647970871565956,0.8509373340632405,784.5054945054945,812.3076923076924,815.934065934066,714.3956043956044,798.6080586080586,-0.535339,-0.157349,0.834656,3.521576,-4.972076,1.0841370000000001,66.0,20.0,46.0
736.5622032288701,55.77437397174632,,,,,,,29.625171346615524,29.717451212011408,0.07572255775173913,0.04022086826713015,746.1538461538463,51.32076923076927,0.06878041237113408,75.0,9.876543209876543,49.382716049382715,14.727272727272727,265.625,,,0.02715940966716488,0.010728417772083368,0.000572127620011378,2.5315391555534803,0.7061737234304429,0.2789503460301208,-4.534859191545909,2021-10-21 15:41:35,2021-10-21 15:41:35.018,1.189888012951053,1.2178990552563893,1.315720427915696,1.064480549072008,0.4792085352968102,0.5555465464075044,0.6714755496139434,0.5583274505299074,0.7858829227903632,0.5540958784733392,0.6535860532966861,0.5796144469617235,0.881225461822229,0.7278249973087136,0.8049945751142629,0.8305025952586943,0.9744522724426404,0.5533572821136374,0.7706789659169802,0.9786003174646712,790.5494505494507,809.8901098901099,814.7252747252749,770.8058608058608,694.2490842490844,-0.544189,-0.158813,0.8323969999999999,3.633728,-4.351501,0.792542,65.0,19.0,46.0
736.9420702754036,55.891397938647174,,,,,,,29.625171346615527,29.717451212011404,0.07584232220282923,0.040200135860806896,746.1538461538463,51.32076923076927,0.06878041237113408,75.0,9.876543209876543,49.382716049382715,13.5,265.625,,,0.026475140767407063,0.010579857021914968,0.0005267483582397974,2.502410071569666,0.7044680857417978,0.2815158449629768,-4.548803366639993,2021-10-21 15:41:36,2021-10-21 15:41:36.007,1.155976369775046,1.2248749338958898,1.24540713067479,1.121322861839927,0.4012744987085979,0.4619138871828014,0.7278235025834945,0.6329557127766446,0.6970496563256696,0.5794932048567367,0.6400719929446914,0.8373432456094404,0.8905967366021954,0.7743927787359789,0.7846413590906122,0.8334919600324103,0.8081708962461079,0.4101018121839199,0.8533535692687136,0.8233507702263376,787.7289377289377,790.1465201465203,792.1611721611722,774.8351648351648,599.1575091575091,-0.542053,-0.15673800000000002,0.8318479999999999,3.282318,-4.07486,0.9944149999999999,63.0,19.0,44.0
736.7046533713201,55.93369782352039,,,,,,,29.903000227694825,29.99442534604497,0.07592418151230032,0.040590214940074316,746.1538461538463,57.02307692307691,0.0764226804123711,75.0,10.493827160493826,50.0,13.5,265.625,,,0.02622250931627947,0.010510561196603568,0.0004889740682036309,2.4948724264840525,0.7044886870508907,0.2823746334972747,-4.555374699076992,2021-10-21 15:41:37,2021-10-21 15:41:37.008,0.8344803074264975,1.05395304409675,1.012749193157166,0.9796182495281974,0.4756905124785534,0.224455694911494,0.4923805195142771,0.5296525980323382,0.8110159011368409,0.4506811350884933,0.4162975137166401,0.8708506738631734,0.9469528832710488,0.7033316454798251,0.8979814869517452,0.8628524917008374,0.6635272098799773,0.3928928456724473,0.6725140772665731,0.7983162165245125,806.2637362637363,811.098901098901,804.2490842490844,851.7948717948718,747.8388278388278,-0.538208,-0.15979000000000002,0.835144,3.902893,-5.054321,1.188812,61.0,15.0,46.0
736.40707118968,56.09821904886997,,,,,,,29.792179586210903,29.883228261413326,0.07617827319099775,0.040456129159760865,746.1538461538463,57.02307692307691,0.0764226804123711,76.9230769230769,10.559006211180122,49.068322981366464,14.636363636363635,265.625,,,0.026326873304966303,0.010487723484435656,0.00044334644076748204,2.510256238547555,0.7066110209660806,0.2814895985976829,-4.557549897815321,2021-10-21 15:41:38,2021-10-21 15:41:38.072,1.026871891160897,1.0023096716159159,0.9474921139725276,1.1169128757101479,0.787820736040358,0.2222568218455072,0.3727505420782335,0.8775974910356584,1.1254235279407159,0.4604888879579844,0.5381589564348823,0.8738434708625992,0.7496505195354517,0.8522279418396448,0.8318620268616874,0.8379185298057871,0.822286650172795,0.7779092655406489,0.7323723891466235,0.7543355828149638,763.5531135531136,784.9084249084249,797.8021978021977,722.8571428571429,636.6300366300368,-0.542908,-0.163025,0.833374,3.8206480000000003,-4.957123,0.785065,63.0,19.0,44.0
735.7549857549858,55.94813535103199,,,,,,,29.55686041097425,29.640364617723854,0.07604180254874048,0.04017215103292145,746.1538461538463,57.02307692307691,0.0764226804123711,76.9230769230769,10.493827160493826,48.148148148148145,14.727272727272727,265.625,,,0.025743942862680932,0.010118551348651823,0.00039467225084513074,2.5442320719270755,0.7100373629455035,0.27907727867281396,-4.593384772735799,2021-10-21 15:41:39,2021-10-21 15:41:39.007,0.7701502074553604,0.7953591799285649,0.9628363752151468,0.8567693020223611,0.5273360905255722,0.25868754118189896,0.3600448685976916,0.5739954190623354,1.142845002898874,0.4715596166567566,0.459335633366125,0.7164983748987285,1.0687746547940289,0.9193295450031996,0.8119502347967436,0.9429726664945332,1.068185366224164,1.016427982300081,1.079110598838736,0.9480315574422408,824.3956043956044,802.6373626373628,819.5604395604396,834.8717948717949,1324.835164835165,-0.5354,-0.157776,0.8349,4.2916870000000005,-5.039368,0.957031,67.0,25.0,42.0
735.1377018043686,55.61477726061803,,,,,,,29.525757739609823,29.60795322526404,0.07565219022791729,0.040163574344153394,742.3076923076924,51.32076923076927,0.06913678756476688,76.9230769230769,10.493827160493826,47.53086419753087,14.727272727272727,164.0625,,,0.02520297533807899,0.009641213896824987,0.0003417372585191229,2.61408735536702,0.7162799974242512,0.2740076745919169,-4.64170825538015,2021-10-21 15:41:40,2021-10-21 15:41:40.000,0.6431519388544509,0.4254248084762323,1.146732299924463,0.8916323090425902,0.4225300530005633,-0.02181895255182527,0.3212360390787142,0.49421728874600795,0.755032274627361,0.3888107917033122,0.4102485405929371,0.588046241439855,1.0729490595156999,0.8586059624805392,0.8683296748330579,0.9601239043595752,1.047705822522596,1.009075247891815,1.120384078999741,1.0704686603863258,800.2197802197803,811.9047619047618,788.1318681318681,828.8278388278387,821.978021978022,-0.5422359999999999,-0.161011,0.8265379999999999,3.753357,-3.379517,0.8747860000000001,72.0,38.0,34.0
734.0930674264008,55.25011900551012,,,,,,,29.64997266644405,29.729970494045762,0.07526309872290059,0.040389936892322884,738.4615384615386,57.02307692307691,0.07721874999999997,76.9230769230769,10.493827160493826,47.53086419753087,14.727272727272727,164.0625,,,0.02502584623487248,0.009300697671718457,0.0003087809557507294,2.690749352166454,0.7225526636270304,0.2685321332681054,-4.677665863172321,2021-10-21 15:41:41,2021-10-21 15:41:41.000,0.8325548372008615,0.6030946353688903,1.098511595176895,1.2472675881645907,0.4809344359747961,0.7819389657733886,0.4643906665602248,0.5813744743598143,0.6589690670285182,0.3996944786772701,0.3871942313810365,0.1890298385743791,0.9535147316290408,0.6856068877231797,0.666980742405662,0.8720339683638322,1.184247139596553,0.9900250106702714,0.8189155183406538,1.1989654723313898,788.1318681318681,814.7252747252749,782.8937728937732,751.0622710622711,700.2930402930403,-0.553833,-0.162476,0.824097,3.5440059999999995,-4.785156,1.173859,70.0,39.0,31.0
732.6210826210828,55.49522820898971,,,,,,,29.350973705590754,29.436934833970408,0.07574888236964955,0.04006296624795782,738.4615384615386,57.02307692307691,0.07721874999999997,76.9230769230769,9.876543209876543,46.913580246913575,14.727272727272727,164.0625,,,0.025095002595847567,0.009014273249666726,0.00028465721991377454,2.7839185590225344,0.729634570960785,0.2620890501972759,-4.708946041254043,2021-10-21 15:41:42,2021-10-21 15:41:42.052,0.4282837657725327,0.7804047949471407,1.0505043719855658,0.629900750517374,0.6044185874713102,0.7464438495776968,0.5586170013242839,0.3051313293393247,0.5467120458841555,0.3894860952429587,0.3648139105173191,0.3272010412812351,1.074847429382779,0.5993120067185608,0.7963205367202866,0.9360813560661884,0.7348145374242451,0.6805484666508055,0.9090993794506748,0.7492945265762213,801.8315018315019,799.8168498168499,791.7582417582418,837.6923076923077,1141.501831501831,-0.544434,-0.160828,0.8261719999999999,3.730927,-4.6804809999999994,0.9420780000000001,64.0,37.0,27.0
732.2886989553656,55.528556292335644,,,,,,,29.48215887515985,29.57100129781125,0.07582877678100043,0.04026029476792028,738.4615384615386,57.02307692307691,0.07721874999999997,76.9230769230769,9.876543209876543,47.53086419753087,14.727272727272727,164.0625,,,0.025399052479710773,0.00869541619734445,0.0002653794363364547,2.9209703024298657,0.7392073560945558,0.2530691104526574,-4.7449592660368625,2021-10-21 15:41:43,2021-10-21 15:41:43.010,0.5128226219148597,0.6710783540180212,0.9688657138060692,0.4729059760432199,0.290948307938096,0.1335614212699639,0.2893166880333293,0.153109220140545,0.6192401600413117,0.1553916402711427,0.3377718961257433,0.5647324334745787,1.07395175625649,0.6565922143556074,0.8081081958348679,0.8773363975899869,0.8581680601588434,0.7558856973550727,0.8716462507748692,0.8103592184307484,796.1904761904763,805.8608058608058,816.7399267399268,764.7619047619047,562.0879120879122,-0.5490109999999999,-0.160461,0.8258059999999999,3.147736,-4.80011,0.88974,60.0,28.000000000000004,32.0
732.0906087777255,55.282663708719284,,,,,,,29.49027606681388,29.580760339581534,0.07551341739107595,0.040282276146186166,738.4615384615386,57.02307692307691,0.07721874999999997,76.9230769230769,9.8159509202454,47.852760736196316,14.818181818181818,148.4375,,,0.02579982973051418,0.008472264153445777,0.00025809589821438456,3.045210732720257,0.7471673307695786,0.2453581693842716,-4.77095749158391,2021-10-21 15:41:44,2021-10-21 15:41:44.021,0.5402081674331755,0.7932700166418122,1.102532044578769,0.6101521065427221,0.03375496472863918,0.3925605492541659,0.3583789261051868,0.1313585927346531,0.5144240317377047,0.3720573758968195,0.4151438177158433,0.5500981091750037,0.9877170790666178,0.7335450064923603,0.8393343214941434,0.711772380820582,1.0181890270140441,0.7290086055543608,1.030721876722593,0.9380039823887041,820.7692307692308,787.3260073260074,811.098901098901,853.809523809524,823.1868131868132,-0.556091,-0.161926,0.8245239999999999,3.573914,-5.256195,0.800018,55.00000000000001,18.0,37.00000000000001
731.7130722038697,55.1846461629912,,,,,,,29.49027606681388,29.577078784217786,0.0754184232308148,0.040303060293826895,738.4615384615386,57.02307692307691,0.07721874999999997,73.0769230769231,9.8159509202454,47.852760736196316,13.583333333333336,148.4375,,,0.026330562144184656,0.00827754212507935,0.0002571013020395721,3.1809638351954925,0.7552102938368013,0.23741555483304905,-4.794209199449287,2021-10-21 15:41:45,2021-10-21 15:41:45.042,0.9441141530607328,0.8986249990816022,1.456006022498076,1.218238475961093,0.3810712050208118,0.4654854507267778,0.7709691066217675,0.7506724951997421,0.6433821035567667,0.3550045264967561,0.6425097084242548,0.7156908971097449,1.311691577172084,0.8409729841208557,0.9372504400931086,1.191505606187755,0.9209512164961652,0.7263381695677709,0.7939891954274151,0.9385978141075172,782.8937728937732,799.8168498168499,778.0586080586081,815.1282051282053,1276.483516483516,-0.541626,-0.16436800000000001,0.8310549999999999,3.132782,-4.658051,1.525269,60.0,16.0,44.0
731.0995752713544,54.656430232917536,,,,,,,29.601537197519537,29.69145318392569,0.07475921486157518,0.04048906359510967,738.4615384615386,57.02307692307691,0.07721874999999997,69.23076923076928,9.8159509202454,48.466257668711656,13.583333333333336,148.4375,,,0.027006687964675195,0.008116503057013159,0.00026190539461936,3.3273797564013416,0.7632221104314636,0.22937631599253056,-4.813855875571647,2021-10-21 15:41:46,2021-10-21 15:41:46.007,0.9700320517608804,0.658428774449523,1.4497428962313539,1.108078040767111,0.3319697907803917,0.1185011093729379,0.7657402261681616,0.5274705542316951,0.8000219051973438,0.4020947495133624,0.6853749407156923,0.7581046913989025,1.136409847514853,0.946499648006108,0.9038014967212836,1.084676114512713,0.8258462339144942,0.8334614957754345,0.8758172414069443,0.7347649515450926,708.7545787545787,815.5311355311355,809.0842490842491,641.4652014652015,554.4322344322344,-0.547241,-0.157104,0.827026,3.461761,-4.979553,1.039276,68.0,14.000000000000002,54.0
730.722038697499,54.28189539087371,,,,,,,29.384809295164256,29.475771267034432,0.07428528567118406,0.04021338859238766,738.4615384615386,57.02307692307691,0.07721874999999997,69.23076923076928,9.8159509202454,47.852760736196316,13.583333333333336,148.4375,,,0.028154196435567776,0.007987774514115696,0.0002763529422963226,3.5246608909421187,0.7730777648931838,0.21933394128209172,-4.829843091904642,2021-10-21 15:41:47,2021-10-21 15:41:47.024,1.111086979367374,1.317163374441312,1.262759022594498,1.0451509285465521,0.29881675384963396,0.4215049749681802,0.7946168595551936,0.2809387393535916,0.7006994682512344,0.6223418505280071,0.5581510333486386,0.5490489531923407,1.013418572377853,0.8638733198877778,0.9537085847734004,0.9563231504827032,0.7645536763749272,0.6827184446107207,0.8342823833113642,0.5792281304176744,795.7875457875458,838.0952380952382,786.1172161172162,805.4578754578755,685.3846153846154,-0.551941,-0.158203,0.825684,3.7159730000000004,-4.157104,1.218719,71.0,19.0,52.0
730.5332704105709,54.200592473465775,,,,,,,29.40344856712748,29.494276135579657,0.07419318827601677,0.040249294259523984,738.4615384615386,57.02307692307691,0.07721874999999997,69.23076923076928,9.8159509202454,47.852760736196316,13.583333333333336,148.4375,,,0.029099417171373924,0.007878927495625975,0.0002916493129364932,3.693322116179976,0.7807733263128257,0.2114013621753588,-4.843563488991416,2021-10-21 15:41:48,2021-10-21 15:41:48.010,1.0233021463090959,1.387992800295461,1.00133955526503,0.8916303990919627,0.45001220357951904,0.5965553220889095,0.6618007809587587,0.5488568594509224,0.5524879010130431,0.7680513258919417,0.6893971219215888,0.9231245911067946,1.1152635918864755,0.9075859660535798,0.9590526921900848,0.9130693602598894,0.8504359399500635,0.7150748485096768,0.7289255149095861,0.954364450431052,785.7142857142858,776.4468864468864,788.1318681318681,780.0732600732601,752.6739926739926,-0.5626220000000001,-0.169434,0.819092,4.299164,-5.106659,0.86731,76.0,21.0,55.0
729.7310051911279,54.100034624598216,,,,,,,29.51503700825984,29.60192039737247,0.07413695490494962,0.04044646150197413,730.7692307692308,57.02307692307691,0.07803157894736841,69.23076923076928,9.8159509202454,48.466257668711656,13.583333333333336,148.4375,,,0.03042409049230804,0.007767720769634553,0.0003153329647159367,3.916733285681612,0.7900895042547823,0.20172154870568024,-4.8577784948757365,2021-10-21 15:41:49,2021-10-21 15:41:49.003,1.09993109980342,1.475929552672804,0.90754003162171,0.7333403935870269,0.5255866859853333,0.8940145637216989,0.5942883321185328,0.3960091456297457,0.6971338470608588,0.7319081450189755,0.7480822733647606,0.9502735126058424,1.0213055756901108,1.0344161730338441,0.9929865819508068,0.8390019130465255,0.9806502612136638,0.6668501199197193,0.9197166686490992,1.019024520248484,787.3260073260074,819.96336996337,840.1098901098901,724.8717948717949,540.3296703296703,-0.5505979999999999,-0.16406199999999999,0.8276979999999999,4.3365480000000005,-5.8094790000000005,1.3607790000000002,72.0,15.0,57.0
729.2118924020766,53.90147415484836,,,,,,,29.490276066813887,29.57523783467953,0.07391743705288872,0.04044129885165585,730.7692307692308,57.02307692307691,0.07803157894736841,69.23076923076928,9.8159509202454,48.466257668711656,13.583333333333336,148.4375,,,0.03164438088674632,0.007710743054632527,0.00033713983157207273,4.103934038851772,0.7972430362692241,0.19426312136641516,-4.865140720611993,2021-10-21 15:41:50,2021-10-21 15:41:50.084,1.072937255116383,1.260252857575749,1.3677728557243112,0.7370395523165171,0.7019926135696374,0.7413377439717328,0.5988557890275527,0.5470161668596144,0.7448741325649381,0.5315858821114502,0.5651443490608783,0.6857174699159476,0.9184565884537622,0.8884134362075541,0.8644787376379159,0.8613373695779081,0.8567555186861873,0.5781068601302174,0.960128980453266,0.8607218909040854,834.0659340659341,794.5787545787546,813.5164835164835,869.9267399267401,790.5494505494507,-0.546021,-0.150635,0.8212280000000001,2.938385,-4.231873,1.472931,67.0,10.0,57.0
728.1894934333958,53.60816712137957,,,,,,,29.3502439014784,29.43425940095309,0.07361842982465781,0.04030577777645858,730.7692307692308,57.02307692307691,0.07803157894736841,71.15384615384619,9.75609756097561,47.5609756097561,13.666666666666664,148.4375,,,0.03319649493512227,0.007726156086044236,0.00036269557508338733,4.296637883757635,0.8040745124357909,0.18714039539505847,-4.863143812244187,2021-10-21 15:41:51,2021-10-21 15:41:51.007,1.1563884354097758,1.3649324466078792,1.479049249650891,1.2922924439423629,0.6341789746043904,0.8282770135577525,0.5324413397863033,0.3697332720614264,0.6680822149168382,0.4957685972433821,0.4875311703421776,0.4833866865817065,1.0544811471392461,0.8365745031072692,0.8409865454913336,0.9078963812911136,0.7958917780567966,0.4991740868720516,0.7901208186831585,0.5946948609508962,800.2197802197803,825.2014652014653,809.4871794871796,798.6080586080586,784.1025641025641,-0.5661619999999999,-0.16095,0.818604,4.194489,-4.830017,0.807495,63.0,10.0,53.0
727.3714016045303,53.792526269613816,,,,,,,29.366158192494847,29.45070769871429,0.07395468965503904,0.040372989820214485,730.7692307692308,57.02307692307691,0.07803157894736841,69.23076923076928,9.8159509202454,47.23926380368097,13.583333333333336,148.4375,,,0.0348427694363767,0.007671308080605456,0.000390841001103545,4.541959346472597,0.8120926606978507,0.17879787086349486,-4.870268133084746,2021-10-21 15:41:52,2021-10-21 15:41:52.000,0.9570102346088956,0.9521441998973807,1.4607238389587518,1.1837238026888708,0.4998059592093284,0.7298807391393181,0.5757086182727802,0.4162636362631132,0.7115924021519935,0.5893235793613708,0.7655219728032664,0.6439961766652145,1.037529220505842,0.6448229935289281,0.952434034986106,0.9084763998244966,0.8419453040437754,0.5783246421332059,0.818202818728683,0.7647838960193885,652.7472527472528,819.96336996337,809.0842490842491,658.3882783882783,907.3992673992674,-0.556335,-0.155029,0.821594,3.9402769999999996,-5.129089,0.927124,56.99999999999999,13.0,43.99999999999999
726.8994808872109,53.76044075556099,,,,,,,29.39723678960657,29.4828514241992,0.07395856259237406,0.04044195595479863,730.7692307692308,57.02307692307691,0.07803157894736841,69.23076923076928,9.8159509202454,47.852760736196316,13.583333333333336,148.4375,,,0.03606973879990544,0.007615016930962058,0.00041079198490431265,4.736659041853043,0.817990492654755,0.17269355582215315,-4.8776330692675485,2021-10-21 15:41:53,2021-10-21 15:41:53.004,0.8305491142983552,1.199141446435106,1.562223664598057,0.9752073830576268,0.4288397912733977,0.6178972939520145,0.7104074878754656,0.3617362270971162,0.574274040890991,0.7362683811120047,0.6471371226976983,0.440046996431654,1.123638759634302,0.6844240526333577,0.7943747535009502,0.974029064332072,0.9335473407394476,0.5888197936509395,0.8333335630044342,0.9587321361783904,786.5201465201468,803.4432234432236,801.025641025641,757.5091575091576,694.6520146520148,-0.549866,-0.15173299999999998,0.827515,3.3570860000000002,-4.351501,1.435547,55.00000000000001,22.0,33.00000000000001
726.5478424015008,53.41841078955505,,,,,,,29.393501469390603,29.481650429006066,0.07352359703249281,0.04045638807794755,730.7692307692308,51.32076923076927,0.07022842105263162,69.23076923076928,9.75609756097561,48.78048780487804,12.615384615384615,148.4375,,,0.037234789366037135,0.007561240396573497,0.0004277365132474068,4.924428719778663,0.8233456085658729,0.16719616739683044,-4.884720028628466,2021-10-21 15:41:54,2021-10-21 15:41:54.006,1.050969117000536,0.8391132944314429,1.34307461685819,1.2080947573038392,0.8188068024912086,0.4904562054621025,0.4101069127077921,0.8793116153169307,0.9075843446050159,0.5789858684676996,0.5235203961202124,0.8250679604410973,1.094675402071172,0.8115756711487111,0.8623425903896854,0.8114865603720438,0.6886415396942354,0.4252472968749937,0.5966506202739167,0.6371796582897811,813.9194139194141,803.4432234432236,792.5641025641023,835.6776556776558,784.1025641025641,-0.548828,-0.151978,0.823792,3.925323,-4.7253419999999995,1.1589049999999999,53.0,26.0,27.0
726.2195121951221,53.128870656387065,,,,,,,29.393501469390603,29.482714520771214,0.07315814263348007,0.04047467876557564,730.7692307692308,45.61846153846162,0.062425263157894866,69.23076923076928,9.75609756097561,48.78048780487804,12.615384615384615,148.4375,,,0.03858328016360988,0.0075071268106764,0.0004436183310962842,5.139553538477323,0.8291412554663948,0.16132554107258926,-4.891902468209928,2021-10-21 15:41:55,2021-10-21 15:41:55.000,1.004097052009282,0.9639503705324748,1.4215358583951891,1.2430253610487352,0.6378147308523162,0.7822262448582687,0.7094276602725992,0.8869100465476942,0.8888285159469463,0.5591567356396113,0.6709206068113229,0.9114076902690288,1.047983644160434,0.8391289886390864,0.8346349701288208,0.8737817520443987,0.8154180306842929,0.6126213908696677,0.8330397384203548,0.7473939443772091,791.7582417582418,765.9706959706958,803.040293040293,784.9084249084249,746.6300366300368,-0.55603,-0.151306,0.824219,3.701019,-4.568329,1.465454,53.0,33.0,20.0
725.5781028787164,52.89406156218946,,,,,,,29.440691708803143,29.530098720520325,0.07289919769123866,0.040575496410376485,730.7692307692308,45.61846153846162,0.062425263157894866,69.23076923076928,9.8159509202454,49.079754601226995,12.538461538461537,148.4375,,,0.039461586848135916,0.007464846238215724,0.000450387501566817,5.286322797396049,0.8329302464462759,0.15756325869024926,-4.897550445896926,2021-10-21 15:41:56,2021-10-21 15:41:56.029,0.7716576074575926,1.3288150713891809,1.0501493147554808,0.8073338455598913,0.3386249754766384,0.7180618231703543,0.6100867168544672,0.5337976241825554,0.4765888370529851,0.4430482655677605,0.5481176277573043,0.6674794479739796,0.9362489060613504,0.7924529749196597,0.9967894972001344,0.790451071265478,0.9313034334054626,0.6176455304491919,0.7870719689229434,0.8065563164136659,806.2637362637363,813.9194139194141,807.4725274725273,741.7948717948718,624.9450549450548,-0.553833,-0.154602,0.823792,4.201965,-5.839386,0.904694,54.0,38.0,16.0
724.859287054409,52.5502907753102,,,,,,,29.25112924476381,29.33940045004352,0.07249723044710843,0.040354217386978405,723.0769230769231,45.61846153846162,0.06308936170212777,69.23076923076928,9.75609756097561,48.78048780487804,12.615384615384615,257.8125,,,0.04037248559626048,0.007473846959208904,0.00045437936711216346,5.40183466648531,0.8358569468079731,0.15473575153898986,-4.896345424552238,2021-10-21 15:41:57,2021-10-21 15:41:57.038,1.253016672639949,1.192377784866435,1.0353019331422042,1.291487836888053,1.1146275366181781,0.4824310655756602,0.6362914888965704,0.9599780317082252,1.313408745236574,0.5006439361110483,0.5354476534098573,1.1731199502270822,0.981359220338475,0.7920409803753691,0.9423627474511758,0.8416423970459177,0.8158175004930538,0.5875725733286651,0.6231665525813593,0.7095364855827749,819.1575091575091,826.007326007326,796.5934065934067,842.1245421245421,828.4249084249085,-0.548523,-0.147705,0.826355,4.0898129999999995,-4.201965,1.293488,56.99999999999999,36.0,20.999999999999996
724.624765478424,52.54049654865521,,,,,,,29.25112924476381,29.33940045004352,0.07250717757895846,0.04036727784959313,723.0769230769231,45.61846153846162,0.06308936170212777,69.23076923076928,9.75609756097561,48.78048780487804,12.615384615384615,257.8125,,,0.04085561553595471,0.00746102646056501,0.0004504799237807466,5.475870612695936,0.8377696679070903,0.152992962610311,-4.898062278981826,2021-10-21 15:41:58,2021-10-21 15:41:58.013,1.291122898961321,1.027843132748588,1.241305863420954,1.326204976443613,1.017229137011928,0.3005320638671189,0.6169139290539959,0.8583982397255044,1.313408745236574,0.4753582431328071,0.5513981977549023,1.174869770140279,0.9300212056626868,0.7648684855861447,0.8667475660837058,0.8438694355204673,0.7879000262026125,0.6195825433855789,0.7966003430849917,0.7196111748302965,803.8461538461539,820.7692307692308,800.2197802197803,794.981684981685,782.4908424908424,-0.552979,-0.146912,0.824158,3.416901,-4.568329,1.26358,59.0,38.0,21.0
723.9627039627038,52.45045948696771,,,,,,,29.19272729443066,29.278358741485878,0.07244911816571946,0.04032352375977447,723.0769230769231,45.61846153846162,0.06308936170212777,69.23076923076928,9.696969696969695,48.48484848484848,12.692307692307693,125.0,,,0.04078801439337666,0.0074190896325107706,0.0004350165290605693,5.497711500160588,0.8385328174025835,0.15252397609043142,-4.903698920366293,2021-10-21 15:41:59,2021-10-21 15:41:59.000,1.300547434278165,1.292034987248009,1.485607649590794,1.266170189385946,0.4140090301040763,0.7989155733809687,0.5826485174489514,0.1745265124998438,0.5304761999541222,0.6877121149515592,0.7048010692992812,0.6834255787269528,1.040095247474772,0.7011264484436832,0.8436659004778095,1.02663788036983,0.8544984306800794,0.5258911650259349,0.6553535619743023,0.8330905852876518,807.4725274725273,823.992673992674,808.2783882783882,774.0293040293042,868.7179487179487,-0.561401,-0.15686,0.8193360000000001,3.753357,-4.486084,0.904694,56.99999999999999,41.0,15.999999999999993
723.12382739212,52.48738636877263,,,,,,,29.23871628887077,29.320223695139127,0.07258423022522102,0.04043389967430271,723.0769230769231,45.61846153846162,0.06308936170212777,69.23076923076928,9.75609756097561,48.78048780487804,12.615384615384615,125.0,,,0.03992257254831525,0.007319943098382339,0.0004120887867875303,5.45394574954249,0.8377484825005314,0.1536041099365183,-4.917152724484166,2021-10-21 15:42:00,2021-10-21 15:42:00.014,1.269504603336909,1.0446059410363,1.411864527045338,1.46573852926341,0.3107983569769337,0.7198876460768143,0.4868716909469701,0.1287741204465475,0.4459596979795018,0.6819474246691317,0.6696325536826878,0.6264697583715797,1.1218158622451508,0.7891153907194466,0.8835473906886262,1.119688119970309,0.8832701587522858,0.6232946013038876,0.6175465961098155,0.7213332948172944,778.4615384615387,803.8461538461539,788.1318681318681,713.1868131868132,675.3113553113553,-0.557983,-0.147705,0.818481,4.022522,-5.323486,0.9495540000000001,55.00000000000001,42.0,13.000000000000007
722.2843822843823,52.22446918283568,,,,,,,29.155625740831624,29.24356099609645,0.07230458038932584,0.04036585374948934,723.0769230769231,45.61846153846162,0.06308936170212777,61.53846153846154,9.696969696969695,48.48484848484848,12.692307692307693,125.0,,,0.03855814070540164,0.007244261901999539,0.000379719699826937,5.322576851446927,0.8349148713628255,0.15686290581898432,-4.9275455852799634,2021-10-21 15:42:01,2021-10-21 15:42:01.000,0.7369385185191515,0.7885366457463259,1.135244990516633,0.7217921967481312,0.2975373905080269,0.3674519100606137,0.3657336932870461,0.2906742562587497,0.603232519150525,0.5107285540042145,0.3699264833412262,0.5619475744933077,0.8916371474359046,0.8321721253825232,0.8017737199321275,0.9174004816734624,0.8353854364544767,0.6401600850450488,0.6363711647633753,0.7392705810230406,794.5787545787546,817.1428571428571,780.8791208791209,767.1794871794873,516.959706959707,-0.5512699999999999,-0.14898699999999998,0.827393,3.813171,-4.957123,0.822449,52.0,46.0,6.0
722.1911421911421,52.1814920376549,,,,,,,29.24829138100767,29.337835156869765,0.07225440605562569,0.04049937706556159,723.0769230769231,45.61846153846162,0.06308936170212777,61.53846153846154,9.696969696969695,49.09090909090909,12.692307692307693,125.0,,,0.037334385721589314,0.007232949217222091,0.00035305205461948067,5.1617099194743234,0.8311234212441014,0.16101707267748674,-4.929108412123728,2021-10-21 15:42:02,2021-10-21 15:42:02.057,0.7137342884456579,0.9480521719662266,1.1252536932997521,0.7465917887617224,0.4105340664398858,0.3570216389485116,0.5276940332559699,0.410999612076056,0.9299038947278996,0.5198846858193523,0.4936402800711717,0.634271957396969,0.9813299381599216,0.9126995223069978,0.8150020706301012,0.9961329467681002,0.9691776125172632,0.8061607974436477,0.658474458603161,0.9505877643908108,714.3956043956044,780.4761904761905,782.8937728937732,667.2527472527472,520.1831501831501,-0.56189,-0.151794,0.824585,3.588867,-4.553375,0.650482,54.0,50.0,4.0
721.8181818181819,52.118428350646326,,,,,,,29.591679311683148,29.6819769563212,0.07220437177041683,0.04099602927311267,723.0769230769231,45.61846153846162,0.06308936170212777,61.53846153846154,9.696969696969695,50.30303030303031,12.692307692307693,265.625,,,0.03604334296107295,0.007266417214750787,0.00032714705153448985,4.960263345174449,0.8259829866786599,0.16651998678300226,-4.924491926689735,2021-10-21 15:42:03,2021-10-21 15:42:03.012,0.9840408619156856,1.150951379738877,0.9254894775666642,0.9353194109976748,0.4081011974629323,0.4554473033442917,0.4233818081982865,0.6621932885805163,0.9152751796524602,0.3350386969302109,0.6247848488061793,0.5540363116758334,1.146291864916311,0.7717259649522813,0.7803087962635554,1.051524734362812,0.899444615531703,0.7514261269010312,0.5868524442882928,0.9300008230501948,774.8351648351648,809.0842490842491,776.4468864468864,787.7289377289377,598.7545787545788,-0.565308,-0.152222,0.8181149999999999,3.955231,-4.628143,1.016846,56.99999999999999,54.0,2.9999999999999933
721.4452214452214,51.997118210525535,,,,,,,29.719426902313145,29.80673851875628,0.07207354995901599,0.04119429447848898,715.3846153846154,45.61846153846162,0.063767741935484,61.53846153846154,9.696969696969695,50.90909090909091,12.692307692307693,265.625,,,0.03472149251457949,0.007342976596322214,0.0003028854535060392,4.728531006345576,0.8195341170474816,0.173316853785602,-4.914010987727028,2021-10-21 15:42:04,2021-10-21 15:42:04.057,1.000519016329567,1.230766544947895,1.222484193558377,0.970101250266234,0.6737842473883662,0.6514880732986987,0.5237946003074445,0.4990048136456822,0.703878142853537,0.6700326648067298,0.6941261981772501,0.5304544662585218,0.9811047344258604,0.6790880985094454,0.9692396963786162,0.9096343189276934,0.7402431047252281,0.7163516805263634,0.6105631790368687,0.6457098259925885,797.3992673992674,801.025641025641,816.3369963369963,843.7362637362637,768.3882783882782,-0.564697,-0.154602,0.8161619999999999,4.0000919999999995,-6.377716,1.7420959999999999,56.00000000000001,55.00000000000001,1.0
720.9324009324008,51.78713967534787,,,,,,,29.33451521079937,29.4240222727417,0.07183355833136394,0.04068968903722495,715.3846153846154,45.61846153846162,0.063767741935484,61.53846153846154,9.090909090909092,50.30303030303031,12.692307692307693,265.625,,,0.03303052311961576,0.007484913811149902,0.0002764362417978572,4.4129463548948085,0.8097329333194726,0.18349031875751734,-4.894865776053273,2021-10-21 15:42:05,2021-10-21 15:42:05.000,0.7961080309802782,1.276078892133905,1.376624891260503,0.8751828306926859,0.532987996445541,0.5250874348234414,0.8196952353961138,0.498093986929869,0.8264984093230854,0.6899761342945049,0.6746231665877698,0.6560695928191386,1.027784675383567,0.7020747712245702,0.9483079556798734,0.9368282395329502,0.8485096273125229,0.5790747823280958,0.7238471612518914,0.6880546292423801,791.3553113553114,785.3113553113553,781.2820512820513,803.040293040293,646.3003663003664,-0.553162,-0.148621,0.8226319999999999,3.3570860000000002,-5.069275,1.786957,53.0,57.99999999999999,-4.999999999999994
720.979020979021,51.79254411768599,,,,,,,29.53676120809737,29.627226232204944,0.07183640939698444,0.040967573741589935,715.3846153846154,45.61846153846162,0.063767741935484,61.53846153846154,9.696969696969695,50.30303030303031,12.692307692307693,265.625,,,0.03178791185006258,0.007652769706038786,0.00026019328394228893,4.1537787064177305,0.8006854251483699,0.19276073227282992,-4.872687643592127,2021-10-21 15:42:06,2021-10-21 15:42:06.032,1.054939561121635,1.142931961203483,1.2743646141414389,0.9396453475678168,0.6229999189860261,0.4900440630057616,0.6980301203726096,0.6338038155338998,0.914113884488277,0.40941847399033504,0.6286311896355741,0.6055223195778888,1.189731013847492,0.5985944619429269,0.8323526325592585,1.1292618398668048,0.9776045536366892,0.5699891048507082,0.6408933077373861,0.8939439643204996,790.5494505494507,803.4432234432236,811.9047619047618,795.3846153846154,1047.619047619048,-0.559814,-0.156921,0.8222659999999999,3.708496,-4.530945,1.099091,49.0,56.00000000000001,-7.000000000000008
721.0722610722611,51.824115057555524,,,,,,,29.53676120809737,29.627226232204944,0.07187090372952518,0.040962276324671136,715.3846153846154,45.61846153846162,0.063767741935484,61.53846153846154,9.696969696969695,50.30303030303031,12.692307692307693,265.625,,,0.0303595204795224,0.00790842206296473,0.00024673766041973774,3.8388847026382815,0.7882584074326816,0.2053352649249792,-4.839827003453479,2021-10-21 15:42:07,2021-10-21 15:42:07.013,1.256701484793221,1.2471866831383709,1.2358495590101999,0.9763097272250252,0.6898001087850575,0.6501999482163001,0.836522541594646,0.5794651007101165,0.2998687778189463,0.6343800146742019,0.7778027491591646,0.3580800562672767,1.038728730618679,0.7659806005518257,0.7629064611350732,0.925381233749204,1.005228873098552,0.8050988833008184,0.7451550419701353,0.9955506958538768,847.7655677655678,830.4395604395604,854.2124542124542,790.952380952381,694.2490842490844,-0.5672,-0.165527,0.811279,3.72345,-4.28421,0.6654359999999999,47.0,54.0,-7.0
720.7459207459207,51.83474692621523,,,,,,,29.53676120809737,29.627226232204944,0.07191819673786007,0.0409808232803162,715.3846153846154,45.61846153846162,0.063767741935484,61.53846153846154,9.696969696969695,50.30303030303031,11.785714285714285,257.8125,,,0.029342124447813506,0.00813711671342854,0.00024193108884985548,3.6059608681034048,0.7778688385735948,0.21571749306939195,-4.811319373825131,2021-10-21 15:42:08,2021-10-21 15:42:08.061,1.100922835023477,1.2725762969315773,1.4723214791643482,0.9261871884256668,0.3853938481532409,0.7798109183845738,0.9134740297848714,0.4052384700257282,0.5111216110406671,0.8325646908584677,0.5079866486089506,0.577007596275561,1.228092953229949,0.8737221989209383,1.0980856080087378,1.099419874490497,1.092529347469462,1.002603916297478,1.141119731280281,1.147060048540828,799.0109890109891,784.1025641025641,801.4285714285713,799.0109890109891,742.1978021978023,-0.5629270000000001,-0.151367,0.8227540000000001,3.865509,-5.129089,1.465454,44.0,56.00000000000001,-12.000000000000007
720.9324009324008,51.76623437344497,,,,,,,29.51843246838132,29.60850494028342,0.07180456074174825,0.04094479930462877,715.3846153846154,45.61846153846162,0.063767741935484,61.53846153846154,9.696969696969695,50.30303030303031,11.785714285714285,148.4375,,,0.028515614207494273,0.008388487517096302,0.00024313195633827759,3.3993749349185456,0.7676376241747983,0.22581728666926001,-4.780895046852166,2021-10-21 15:42:09,2021-10-21 15:42:09.015,0.8552843110305959,1.2703665105479929,1.5840811066443519,0.9648382659177632,0.26854118364907703,0.9078709396417388,0.7942656603796863,0.2537629710091588,0.4795986212120736,0.7866349268834147,0.5466946183458331,0.5640120831860663,1.278933980003241,0.9002556778758659,1.041984183894823,1.164424129431224,1.2102990280991222,0.7268668005767851,0.8415337302416845,1.229625125230686,779.2673992673992,803.040293040293,782.4908424908424,819.5604395604396,998.0586080586079,-0.573425,-0.15173299999999998,0.81488,3.603821,-4.486084,0.770111,43.0,62.0,-19.0
720.6060606060606,51.922124088178165,,,,,,,29.223609274180326,29.30461877078811,0.07205341021488139,0.0405542096740097,715.3846153846154,45.61846153846162,0.063767741935484,61.53846153846154,9.090909090909092,50.30303030303031,11.785714285714285,148.4375,,,0.02715093672734992,0.008514115546920015,0.00024710717933290605,3.1889321418913306,0.7560374296741444,0.23708169256487996,-4.766029840265869,2021-10-21 15:42:10,2021-10-21 15:42:10.005,1.172198830094449,1.096645885349083,1.3305121682576688,1.1500222241315639,0.6370758410486157,0.5836078154624279,0.752893365651255,0.7287597194380973,0.9206868208212826,0.49248823308151,0.8914063136151605,1.15877969762726,1.057755579192355,0.9601560555752788,1.029182281640076,0.9848744049164462,0.6063640860834161,0.4730460348412275,0.4202460975535214,0.7124711585497461,804.2490842490844,813.9194139194141,789.7435897435898,776.8498168498169,629.7802197802197,-0.567322,-0.149109,0.821167,3.6262510000000003,-4.463654,1.203766,45.0,68.0,-23.0
719.6941612604262,51.7469518812286,,,,,,,29.159525496842445,29.24197325007823,0.07190130845386088,0.040516551427587415,715.3846153846154,45.61846153846162,0.063767741935484,61.53846153846154,9.036144578313252,50.0,11.857142857142858,148.4375,,,0.02636681376274794,0.008527684114743224,0.00025187338937386736,3.0919078858893534,0.7502001718056681,0.2426334158366692,-4.764437453198807,2021-10-21 15:42:11,2021-10-21 15:42:11.008,1.295748638015094,1.3031283276103378,1.5277846022052457,1.1828024076820158,0.6906831652972367,0.6399751543068929,0.8881182190903614,0.6784892969946357,0.9243965496883836,0.4562660814790883,0.8755381926017738,1.1740941107614642,1.148094984154511,0.7474057554123164,1.053436690900695,1.064665117800672,0.7470501691165937,0.6465291721642328,0.7194360519048235,0.7398673629491813,805.054945054945,797.3992673992674,804.2490842490844,825.6043956043958,1103.223443223443,-0.562195,-0.141541,0.824158,3.977661,-5.465546,1.1514280000000001,47.0,75.0,-28.0
718.6946386946388,51.37890961024714,,,,,,,28.85084389639965,28.922337501780014,0.07148920674233271,0.04014339657354518,715.3846153846154,45.61846153846162,0.063767741935484,61.53846153846154,8.484848484848486,49.6969696969697,11.785714285714285,148.4375,,,0.025451492668754426,0.008526454360823178,0.0002656144071165823,2.985003096445032,0.7432489963348704,0.2489943803475573,-4.764581670852948,2021-10-21 15:42:12,2021-10-21 15:42:12.033,0.9086586862613852,1.278240974723249,1.5570091255641452,0.8314806597666531,0.3932370512685293,0.3782685205511012,0.7475665218711309,0.4680344504406384,0.5037088806437781,0.5181256372191053,0.508361823695832,0.2910693757931549,1.1952525403569099,0.6611126602752746,0.962228904889023,1.136451004646418,0.7263708739564062,0.5843678095216199,0.7132494053263931,0.6452222887178074,762.7472527472528,792.9670329670329,801.025641025641,723.2600732600732,669.6703296703297,-0.5671390000000001,-0.150757,0.815247,3.252411,-3.1103520000000002,1.039276,56.00000000000001,72.0,-15.999999999999993
717.0991658943466,50.6183851146844,,,,,,,28.831775748464647,28.885498212422913,0.07058770602745651,0.04020612088218852,715.3846153846154,45.61846153846162,0.063767741935484,53.846153846153925,8.433734939759036,49.39759036144578,11.857142857142858,148.4375,,,0.02504574630055923,0.008482913941676287,0.00028078376919504056,2.9524932673795354,0.7407914277469801,0.2509036806049907,-4.769701263006266,2021-10-21 15:42:13,2021-10-21 15:42:13.030,0.9038481974567036,1.0921945064880059,1.126546295781198,0.8840901950950011,0.48783004080174797,0.376045306060729,0.3967834199978806,0.5177911431235303,0.7672623997253392,0.5750710939392646,0.4200666429819346,0.5603937038749133,1.103231830946102,0.7232961717607972,0.8860301293010334,0.9729478277145984,0.5704296033382593,0.6326762780984153,0.7158739551689565,0.665494588154174,788.9377289377289,811.9047619047618,817.5457875457878,751.0622710622711,573.3699633699632,-0.560242,-0.153381,0.8172,3.656158,-6.018829,0.72525,57.99999999999999,69.0,-11.000000000000007
715.7553290083409,49.29342770230893,,,,,,,28.437273093357486,28.506931454917197,0.06886910331579871,0.03973043851836428,715.3846153846154,45.61846153846162,0.063767741935484,59.615384615384635,7.831325301204821,48.79518072289157,11.857142857142858,148.4375,,,0.024928466590896137,0.008356135901354516,0.00030240950951696634,2.983252891669136,0.7422055462862907,0.24879069030953835,-4.784759171495407,2021-10-21 15:42:14,2021-10-21 15:42:14.054,0.8215131262430154,1.026600822053156,1.3395951141830258,0.9942107061699388,0.3529997655353723,0.2826230055699729,0.3997329699072598,0.5409747941589494,0.6974044325616024,0.4671785981957691,0.3531031132776575,0.5579902051576574,1.0108962792781948,0.7723461102608948,0.9176356734686116,1.030221730527772,0.4995505756727182,0.47359094571274296,0.6523819975809239,0.7406499160029902,788.5347985347986,793.3699633699632,807.0695970695973,831.6483516483516,1184.615384615385,-0.559753,-0.154419,0.817749,3.6711120000000004,-4.187012,0.971985,61.0,72.0,-11.0
714.8779364348227,48.60012052395808,,,,,,,27.96539225360869,28.048621509090275,0.06798380261437692,0.03911911506609824,715.3846153846154,45.61846153846162,0.063767741935484,61.53846153846154,7.185628742514971,48.50299401197605,11.928571428571427,148.4375,,,0.02515449004181526,0.008203080894990838,0.00032020969114301756,3.066468606590934,0.7469165002203145,0.243575459606834,-4.80324547637528,2021-10-21 15:42:15,2021-10-21 15:42:15.016,0.6885716255384314,1.251082788201834,1.365266724081482,0.8270218129803016,0.207658768989004,0.42654829278362794,0.3839199983682376,0.3678913632382239,0.4681104054913722,0.5507727401361053,0.2446711715957112,0.5512658881461682,0.9684063295973822,0.6571190472188522,0.9827680542053904,1.0324627715569459,0.511032343288297,0.4685325965332624,0.6398918949560034,0.6685116796053489,793.7728937728937,808.2783882783882,799.8168498168499,852.6007326007326,1039.56043956044,-0.555054,-0.148499,0.820984,3.461761,-4.889832,1.315918,62.0,76.0,-14.0
714.1797961075071,48.63541424027238,,,,,,,27.55990101875421,27.643639206172423,0.06809967812776263,0.0385895837000205,715.3846153846154,45.618461538461546,0.06376774193548389,61.53846153846154,6.626506024096386,48.79518072289157,11.857142857142858,148.4375,,,0.02583185781285986,0.007962969315205857,0.0003412675539096878,3.243998160778052,0.7567314906265372,0.2332712452725436,-4.832953319135595,2021-10-21 15:42:16,2021-10-21 15:42:16.020,0.9959555950685294,1.3570621780297938,1.302645113222947,0.9644419382505064,0.4017695977060394,0.5425456777350697,0.1285549496434709,0.06672576504244834,0.1349460568541105,0.5145444578781581,0.2093504108282517,0.1809918950853582,1.0939759921614591,0.7741135415746822,0.9167344069305616,0.9444657064842902,0.9199354232064944,0.5018405294543589,0.7547970259111852,0.7723440719637606,740.5860805860806,796.9963369963368,781.6849816849817,674.1025641025641,496.41025641025635,-0.567505,-0.15155,0.812317,3.3645629999999995,-4.029999,0.762634,60.0,85.0,-25.0
713.6803316444034,48.80697747811058,,,,,,,27.327167408327785,27.40949724177717,0.06838772951140963,0.03829048692621636,715.3846153846154,45.61846153846162,0.063767741935484,61.53846153846154,6.58682634730539,48.50299401197605,11.928571428571427,148.4375,,,0.02659506571806667,0.00772296397545964,0.000355367962050764,3.4436345686157157,0.7670164309319991,0.22273456014246226,-4.863557053984468,2021-10-21 15:42:17,2021-10-21 15:42:17.059,1.030480049894535,0.8656810629966832,1.2764731923840382,1.166178169008487,0.4133348375780063,0.3300708896785969,0.4642796638820396,0.5524540149080905,0.6456300492204244,0.4533614482723416,0.4596992312791885,0.913757842556988,1.036397496157545,0.8570032373193175,0.8874437847360114,0.8973460875664145,0.8556032993163274,0.6008529784442261,0.6701509341619056,0.6660979939705013,815.1282051282053,819.5604395604396,787.3260073260074,834.0659340659341,875.1648351648352,-0.5585939999999999,-0.14819300000000002,0.829102,4.07486,-5.749664,1.05423,62.0,92.0,-30.0
713.9567019806541,48.55231325414983,,,,,,,27.37929366916175,27.460208512695875,0.06800456262887697,0.03834867519725817,715.3846153846154,45.61846153846162,0.063767741935484,61.53846153846154,6.58682634730539,49.101796407185624,11.928571428571427,148.4375,,,0.027642828089736712,0.0074887895092580125,0.0003675955389007924,3.6912278086549617,0.7786884735264149,0.2109564930402276,-4.894348108765267,2021-10-21 15:42:18,2021-10-21 15:42:18.019,1.057371718430812,1.061455571683767,1.10976014368075,1.170609239211319,0.9095742023561072,0.3814181788937034,0.6250721800946709,0.7914104043821443,0.9713691191874724,0.4023472599689104,0.4104237154344391,1.024818766874632,0.944168603298537,1.1277055922585941,0.7431738025145974,0.7859658422216849,0.7632126614795389,0.6295259233266506,0.6776941083916835,0.6311775717517178,790.952380952381,790.952380952381,772.8205128205127,749.047619047619,701.9047619047618,-0.560608,-0.146423,0.8218989999999999,3.7608339999999996,-4.665527,0.49346899999999994,63.0,93.0,-30.0
714.693689543989,47.97775757879306,,,,,,,27.281475229737353,27.363389894049202,0.06713051798373275,0.03817226264743477,715.3846153846154,45.61846153846145,0.06376774193548376,61.53846153846154,6.58682634730539,48.50299401197605,11.133333333333333,148.4375,,,0.029195031723600755,0.007189979970258399,0.0003780069204454167,4.060516419290042,0.7941413089577173,0.19557643091529928,-4.935066893030753,2021-10-21 15:42:19,2021-10-21 15:42:19.007,1.129389496160392,1.298290154609287,1.11182674604752,1.166975083827634,1.163802702778295,0.541804236412882,0.5970116789988809,0.8888034690004817,0.8712334397354717,0.3228580553740444,0.4172844192509394,0.928866732601986,0.9021893228522204,1.142005012734635,0.8876572205385721,0.8303713745669828,0.7177545326290775,0.7354648247590201,0.7559845508440729,0.6566411723091279,782.4908424908424,805.4578754578755,801.8315018315019,740.1831501831501,519.7802197802198,-0.551636,-0.146118,0.830627,3.902893,-5.15152,1.3607790000000002,69.0,91.0,-22.0
714.6895273401296,48.063241235715395,,,,,,,26.914750627246747,26.996521089780966,0.0672505184378356,0.03765936060014165,715.3846153846154,45.61846153846145,0.06376774193548376,59.615384615384635,6.626506024096386,47.59036144578313,11.066666666666665,148.4375,,,0.03038946936515488,0.006917253574018584,0.0003798180970681609,4.393285433296628,0.8063745976562443,0.1835470537709083,-4.9737364704984675,2021-10-21 15:42:20,2021-10-21 15:42:20.019,0.8507774446795345,1.091198037816701,1.169821763922944,0.8747856645159708,0.4629860103666251,0.2255970757660582,0.4499742740720679,0.2898871368691792,0.7412024890790359,0.2659117811851074,0.3861080574377557,0.5985927437888621,0.960284037715786,0.7996681830895687,0.8071291592737996,0.7857395699121368,0.8580938055706799,0.5635753127027414,0.6955079033333788,0.7210599329642814,779.2673992673992,797.3992673992674,786.1172161172162,798.6080586080586,1132.234432234432,-0.5607300000000001,-0.15087899999999999,0.8227540000000001,3.461761,-4.187012,1.3981629999999998,76.0,84.0,-8.0
714.279134039613,48.210845533734776,,,,,,,27.01889476669302,27.09921161304249,0.06749580554184446,0.0378268011468953,715.3846153846154,45.61846153846145,0.06376774193548376,61.53846153846154,6.58682634730539,47.904191616766475,11.133333333333333,148.4375,,,0.031617116583665554,0.006662577966993506,0.0003774095291252081,4.745477912648398,0.8178863196376813,0.1723506746196671,-5.011248787195644,2021-10-21 15:42:21,2021-10-21 15:42:21.020,0.6430647019154465,0.9392669809752738,1.2247381092399658,0.7935837720795161,0.5425132158845926,0.3723950885034945,0.358853800590536,0.320989913929674,0.7028228587745591,0.3813572059686744,0.6028222174772232,0.5571946664708026,0.9757980270836282,0.9064243523758512,0.8452788802722035,0.8381428903049393,0.7203931902400735,0.4915891710576315,0.6760573080175257,0.6576942572160279,772.4175824175826,804.6520146520148,811.9047619047618,757.1062271062273,694.2490842490844,-0.554932,-0.14898699999999998,0.825073,4.11972,-5.9515379999999976,1.532745,80.0,74.0,6.0
714.1334569045413,48.49763126200906,,,,,,,27.09402934954709,27.175501763654623,0.06791115973227925,0.03793972833451601,715.3846153846154,45.61846153846162,0.063767741935484,61.53846153846154,6.626506024096386,48.19277108433735,11.066666666666665,148.4375,,,0.03306039048825552,0.006374027845990025,0.0003687286531807337,5.186734555772954,0.8305974022280003,0.160138791236873,-5.055523694312816,2021-10-21 15:42:22,2021-10-21 15:42:22.032,1.020100600229833,1.3275056650341108,1.2274684217632892,0.9091320103703208,0.7821646100175358,0.6282320757199874,0.5650355797488901,0.40024826132778996,0.6825117753206487,0.4374492871481439,0.7342210473472695,0.5620274822263873,0.9098822399847216,0.8886121719682075,0.8036452201234766,0.7356583389652201,0.8802851216137064,0.4029505620611284,0.7826482385791639,0.7432335050511905,792.5641025641023,782.8937728937732,795.3846153846154,748.6446886446887,544.3589743589744,-0.553833,-0.141052,0.82489,3.125305,-4.9646,1.570129,79.0,66.0,13.0
713.9944392956443,48.57140878347477,,,,,,,27.014496802186517,27.096692553962306,0.06802771297685523,0.03783572436339467,715.3846153846154,45.61846153846162,0.063767741935484,61.53846153846154,6.626506024096386,47.59036144578313,11.066666666666665,148.4375,,,0.03406236933785039,0.0061761455378343535,0.0003575012159600293,5.515150044504012,0.8390569473850638,0.15213673981929204,-5.0870609014734605,2021-10-21 15:42:23,2021-10-21 15:42:23.033,1.04797731894126,1.194258561198657,1.3527464075469169,0.92236869555942,0.4158252884411766,0.6019524017426153,0.6275484385578782,0.001659027142060254,0.6154417237890205,0.7285378540018784,0.7451298469193987,0.4658820031989088,0.9141260681864076,0.7460906225008729,0.969932556005662,0.7762614785429156,0.8361793504954054,0.6453947998602757,0.8438752954145984,0.8391475710800057,788.1318681318681,788.5347985347986,801.025641025641,806.2637362637363,1205.164835164835,-0.550964,-0.15155,0.822449,4.329071,-5.480499,1.308441,71.0,60.0,11.0
714.2330723169048,48.30209543644032,,,,,,,26.985892562160853,27.06718530617788,0.06762791770444468,0.03778303414965253,715.3846153846154,45.61846153846162,0.063767741935484,61.53846153846154,6.58682634730539,47.305389221556894,10.4375,148.4375,,,0.03517339950902477,0.006065563982636392,0.00034642401314668726,5.798867114371232,0.8458115126366981,0.14585806088581305,-5.10512775119194,2021-10-21 15:42:24,2021-10-21 15:42:24.001,0.6508841490259667,0.7376809183838898,1.2731404390533898,0.8002738439744279,0.3643334849175404,0.4188860715673047,0.4950293217312674,0.3476205317106062,0.7813874928690117,0.6830657707431822,0.7409516804325622,0.8421760359553209,0.9773006974266876,0.8459437493809602,0.9430106705327016,0.9463166042133844,0.8210263938255004,0.8498412186642557,0.7167413817934034,0.8238161329771,794.981684981685,800.6227106227108,799.4139194139194,841.3186813186812,910.6227106227108,-0.56134,-0.140381,0.820984,3.289795,-4.373932,0.650482,64.0,60.0,4.0
714.5968489341983,48.4038174627629,,,,,,,26.987933868720315,27.070048719305753,0.06773583949461276,0.037766656694571334,715.3846153846154,45.61846153846162,0.063767741935484,61.53846153846154,6.626506024096386,46.98795180722892,10.375,148.4375,,,0.0363935906275548,0.006001561626061015,0.00032989101388031174,6.064020149275861,0.8518093334557697,0.14046941014163505,-5.1157355726085365,2021-10-21 15:42:25,2021-10-21 15:42:25.010,0.5945611611653887,0.6933388165072312,0.9027215379499344,0.5883875926530204,0.4646489991992975,0.2885692390077311,0.3265527243783867,0.3095853121696739,0.6826665142164384,0.3912908955197487,0.3170645448563773,0.7462862994780721,1.004392680519568,0.8968808400353259,0.7021313617224093,0.94664847954831,0.9360462549206956,0.845474892203712,0.7995541493602615,0.8032254409677223,796.5934065934067,792.5641025641023,800.6227106227108,745.0183150183151,568.5347985347987,-0.5604859999999999,-0.14935299999999999,0.8337399999999999,4.874878,-5.7122800000000025,1.061707,61.0,63.0,-2.0
715.1543067710733,48.660866309179,,,,,,,27.07161461149039,27.145727882410718,0.06804247118203505,0.037854228598187316,715.3846153846154,45.61846153846162,0.063767741935484,61.53846153846154,7.185628742514971,46.70658682634729,10.4375,148.4375,,,0.03702728303049496,0.005982139624993403,0.0003135890484053083,6.189638716521231,0.8546793395521742,0.13808226597634615,-5.118976978191976,2021-10-21 15:42:26,2021-10-21 15:42:26.013,0.6570192591785209,1.2444366573936332,1.0096590385793909,0.3952994058625329,0.5587158247430893,0.7419075209237316,0.6345029349324333,0.2714814332734224,0.6146983155578932,0.6948681192632027,0.6251611314198038,0.2945302257929361,1.066915407242535,0.7987483068725699,0.8402201480996504,1.01117657828085,0.9088442665366964,0.6785065402639571,0.8448199749469391,0.8304229123300333,806.2637362637363,804.6520146520148,817.948717948718,850.5860805860806,974.2857142857144,-0.556763,-0.148926,0.830017,4.127197,-5.7646180000000005,0.9420780000000001,55.00000000000001,63.0,-7.999999999999992
715.6609857208659,48.78134335282538,,,,,,,27.025490371518888,27.10530946929502,0.06816264170623923,0.037762978436356766,715.3846153846154,45.61846153846162,0.063767741935484,61.53846153846154,7.185628742514971,46.70658682634729,10.4375,148.4375,,,0.03778085691242625,0.006062365671083733,0.00029896705752305265,6.232032008994995,0.8558899596885082,0.13733722138351676,-5.105655180311026,2021-10-21 15:42:27,2021-10-21 15:42:27.008,0.9168606862994046,1.5074532339148552,1.3635969278297309,0.4455597566765452,0.5729646012855829,1.0398784063050408,0.8649350766051715,0.3170678153149736,0.4108074165665953,0.7887292105298468,0.7326392537319786,0.1404612931163476,1.0527071796024041,0.6725512601830776,0.8274335585183291,1.071302216041875,0.8809849444593868,0.5788097273390415,0.8423813708889357,0.9025675525214858,780.8791208791209,812.3076923076924,793.3699633699632,827.2161172161173,946.8864468864467,-0.549988,-0.136047,0.8363649999999999,3.9328,-4.366455,0.86731,51.0,65.0,-14.0
715.7553290083412,49.00155870157872,,,,,,,27.00121860192394,27.08305095560473,0.06846132570115686,0.037724090212968964,715.3846153846154,45.61846153846162,0.063767741935484,61.53846153846154,7.2289156626506035,46.38554216867471,11.066666666666665,148.4375,,,0.03801618155029407,0.006162734761445439,0.00027728312855299585,6.168719411409095,0.8551379116730887,0.13862486760080295,-5.089234645175371,2021-10-21 15:42:28,2021-10-21 15:42:28.031,1.0946841780709922,1.292509346274565,1.202930976542733,1.0553532990513679,0.0008326736171744303,0.6752661800206832,0.7137393196249681,0.5459071557720852,0.3336972881643557,0.7786932615807461,0.6106877625392467,0.8030222266644235,1.00638496870359,0.7362299842792016,0.7285793065137763,0.9497909336388164,0.6963327593957239,0.5149071657667001,0.5738022270543093,0.6406962616048174,800.6227106227108,780.0732600732601,787.3260073260074,735.7509157509156,544.7619047619048,-0.562561,-0.15325899999999998,0.8216549999999999,4.09729,-4.620667,0.717773,46.0,66.0,-20.0
715.8452326116997,48.88213993933896,,,,,,,26.76705753218585,26.847403571327447,0.0682859055455279,0.037392241105704584,715.3846153846154,45.61846153846162,0.063767741935484,61.53846153846154,7.185628742514971,46.10778443113772,11.133333333333333,148.4375,,,0.03786757664613506,0.006274046489199814,0.00026004341830834315,6.035590700725693,0.8528413364932127,0.14130204958906029,-5.071333759422835,2021-10-21 15:42:29,2021-10-21 15:42:29.057,0.9376326791966798,1.222069914906698,1.478324356438372,0.8599223408147755,0.2974132366685826,0.7250852754904584,0.8049809410688248,0.39365398307931104,0.4574811385777251,0.8262518481799004,0.7452950894734564,0.7587122854372992,1.011530126411889,0.8062742426012246,0.7750585696882286,0.9298522886851548,0.788287888237529,0.5146436060559166,0.6291563544327045,0.6046002926049189,786.5201465201468,784.5054945054945,795.7875457875458,828.4249084249085,776.4468864468864,-0.549866,-0.142395,0.826843,4.164581,-5.413208,1.390686,41.0,67.0,-26.0
