HRV_MeanNN,HRV_SDNN,HRV_SDANN1,HRV_SDNNI1,HRV_SDANN2,HRV_SDNNI2,HRV_SDANN5,HRV_SDNNI5,HRV_RMSSD,HRV_SDSD,HRV_CVNN,HRV_CVSD,HRV_MedianNN,HRV_MadNN,HRV_MCVNN,HRV_IQRNN,HRV_pNN50,HRV_pNN20,HRV_HTI,HRV_TINN,HRV_ULF,HRV_VLF,HRV_LF,HRV_HF,HRV_VHF,HRV_LFHF,HRV_LFn,HRV_HFn,HRV_LnHF,Time,TimeStamp,Delta_TP9,Delta_AF7,Delta_AF8,Delta_TP10,Theta_TP9,Theta_AF7,Theta_AF8,Theta_TP10,Alpha_TP9,Alpha_AF7,Alpha_AF8,Alpha_TP10,Beta_TP9,Beta_AF7,Beta_AF8,Beta_TP10,Gamma_TP9,Gamma_AF7,Gamma_AF8,Gamma_TP10,RAW_TP9,RAW_AF7,RAW_AF8,RAW_TP10,AUX_RIGHT,Accelerometer_X,Accelerometer_Y,Accelerometer_Z,Gyro_X,Gyro_Y,Gyro_Z,Attention,Meditation,A_M
705.9065934065935,60.410981955304344,,,,,,,29.118551110572287,29.186789113838774,0.08557928558758816,0.041249864192443315,703.8461538461537,62.72538461538471,0.08911803278688539,84.61538461538464,8.333333333333332,52.38095238095239,14.0,187.5,,,0.016301197379666645,0.005621885998483048,0.00037084753612690513,2.899595862325417,0.7311943973607488,0.2521711411101082,-5.181088084454541,2021-10-21 16:10:30,2021-10-21 16:10:30.021,0.9194778194955272,1.477378112470722,1.4758847608814172,1.151091969470839,0.5378060517754379,1.034699348063282,1.12529897257902,0.6196116624995963,0.6220667845390289,1.0814553437933159,1.0100227427834392,0.8982153643908579,0.9369113649673764,0.7326847974664745,0.9762402532930564,0.8929374164987262,0.6616540755462953,0.1888224584523182,0.6963359694074126,0.6261309424925788,789.7435897435898,767.5824175824176,797.3992673992674,877.9853479853481,836.4835164835165,-0.489807,-0.106018,0.8707889999999999,4.044951999999999,-5.218811,0.448608,52.0,42.0,10.0
707.0054945054945,60.29272483884159,,,,,,,28.825034492109154,28.901056563097075,0.0852790046292533,0.040770594735293306,707.6923076923077,62.725384615384634,0.08863369565217394,84.61538461538464,7.738095238095237,51.78571428571429,14.0,187.5,,,0.017081345603778254,0.005596168890637951,0.0003674904435376165,3.052328465703439,0.7412168341802453,0.2428365238239275,-5.1856730420342645,2021-10-21 16:10:31,2021-10-21 16:10:31.041,0.6342547356093184,1.436361862072578,1.28449394826651,0.4774770003569973,0.3738656338946133,0.7378807995482441,1.0378390053723359,0.5120742312358676,0.6932822262222464,0.8675352369110477,1.239279961635039,0.9238844821555064,0.8107009365932415,0.6277720047526846,0.6817798702515561,0.6562662109025792,0.6014167420306976,0.3769129600012638,0.5188740702596133,0.5537110223776043,835.6776556776558,794.1758241758242,801.025641025641,769.5970695970697,909.81684981685,-0.47644,-0.106689,0.8807370000000001,4.224396,-5.473022,0.927124,42.0,39.0,3.0
707.7838827838827,60.38173628367426,,,,,,,28.732695649949342,28.81896183859521,0.08531097945629745,0.04059529518662787,707.6923076923077,62.725384615384634,0.08863369565217394,80.76923076923083,7.738095238095237,52.38095238095239,12.923076923076925,187.5,,,0.018114201610926788,0.005663098673666375,0.00036779421750297316,3.198637822639136,0.7502228500018594,0.23454448162026195,-5.173784067727791,2021-10-21 16:10:32,2021-10-21 16:10:32.031,0.7260131535705941,1.660213009076513,1.6094046349406006,0.8347213892428706,0.5117459749550012,1.0319678374209922,1.2574753486811672,0.7706364626658941,0.5718770781801795,0.8640750632284832,1.304243441429539,0.9197062705928166,0.7159260288083631,0.6554421721508031,0.6728447996506345,0.7234516912634734,0.6517202063068256,0.3938421863674825,0.4609412850045379,0.4752216762414678,831.6483516483516,865.8974358974359,753.4798534798535,668.4615384615385,464.981684981685,-0.4773560000000001,-0.102234,0.883484,3.828125,-3.977661,0.47103900000000004,36.0,37.0,-1.0
707.554945054945,60.3963172394191,,,,,,,29.02714599509131,29.11385937056037,0.08535919035196486,0.04102458218681125,707.6923076923077,62.725384615384634,0.08863369565217394,80.76923076923083,8.333333333333332,52.97619047619048,12.923076923076925,187.5,,,0.02023425278877956,0.006019385393372086,0.00038283580655260963,3.3615147505025,0.7596445684725505,0.2259828157407294,-5.112770118997607,2021-10-21 16:10:33,2021-10-21 16:10:33.073,1.3867972532548922,1.591049201030981,1.71400391779655,0.8634585941209949,0.6448455363906855,1.2829209976766751,1.2036654252260228,0.6922866671000149,0.515540205751015,1.050516950598545,1.182832368206654,0.9994479336087108,0.7418664767888334,0.6096760659837761,0.7322331012582699,0.7023089327853063,0.6233996690697768,0.1156639156210849,0.4412296045695291,0.7190491415258881,798.6080586080586,802.2344322344322,799.0109890109891,886.0439560439563,1152.380952380953,-0.44043000000000004,-0.10321,0.9000239999999999,2.6094060000000003,-12.658234,8.374023,32.0,32.0,0.0
707.0970695970695,60.393523556475344,,,,,,,29.033248622299514,29.11965062778976,0.08541051314339322,0.04105977788713471,700.0,68.42769230769235,0.09775384615384622,80.76923076923083,8.333333333333332,52.97619047619048,14.0,187.5,,,0.02240468709600106,0.006462927693682662,0.0004021500539532332,3.4666467207889458,0.7654549742948031,0.22080558993925967,-5.0416728604968,2021-10-21 16:10:34,2021-10-21 16:10:34.035,1.0747812089426891,1.394095492993801,1.5142406097852799,0.9604070655132358,0.5600992954546584,1.190359636508588,1.066579532151172,0.5630480315717262,0.6587269588162811,1.1222628644042842,1.164268328990085,1.1222266214863779,0.7463113177149259,0.5033254528558063,0.7466206650801701,0.7711594412740019,0.7095887303260203,0.2150904961681332,0.4913226433751224,0.7148781460536956,818.7545787545787,788.1318681318681,816.3369963369963,842.5274725274727,1007.3260073260068,-0.302673,-0.087769,0.957153,2.115936,-9.495544,2.1682740000000003,24.0,24.0,0.0
707.0970695970695,60.393523556475344,,,,,,,29.161108781841392,29.248665610150557,0.08541051314339322,0.041240601942330896,700.0,68.42769230769235,0.09775384615384622,80.76923076923083,8.333333333333332,53.57142857142857,14.0,187.5,,,0.02503308166618353,0.007067365442125284,0.0004288303597710043,3.5420669655729067,0.7695554163706182,0.2172616790846436,-4.952267507541297,2021-10-21 16:10:35,2021-10-21 16:10:35.021,0.7680209780561797,1.4650481266004858,0.875807311519303,1.088039770316354,0.4620744755273881,1.264367479430093,0.3098288195951182,0.7862965832813018,0.8365669260633742,1.2523267877840258,0.4052510047283844,1.1391353660678172,0.7237699107621753,0.4662968818483768,0.6383165880836977,0.9453358029280956,0.57961676189329,0.1730017181252977,0.3851073474181879,0.6305531774002221,783.2967032967032,796.5934065934067,800.6227106227108,743.809523809524,645.0915750915751,-0.182739,-0.019104,0.993958,4.299164,-5.286102,-1.039276,10.0,18.0,-8.0
707.1005917159763,60.20768039719629,,,,,,,29.074190231479026,29.160964133125592,0.08514726349059559,0.04111747405121301,700.0,68.42769230769235,0.09775384615384622,76.923076923077,8.284023668639055,53.254437869822496,14.083333333333336,187.5,,,0.028109063856398487,0.007845389191558408,0.0004631913467505914,3.5828769191774037,0.7718528840509941,0.21542824424686202,-4.847829283886394,2021-10-21 16:10:36,2021-10-21 16:10:36.010,1.1720318947719521,1.5395999274082992,1.3645707114102827,1.043778429630621,0.6148945744961869,1.076764283754203,1.0177221390974822,0.2728070724878012,0.855773681646014,0.9986811145135684,1.084705891494512,0.8528306286401071,0.6348351445713399,0.3026368187899071,0.4765782324456566,0.7654556432663799,0.2421485007221595,-0.03826907694590444,0.2012304795943945,0.6866164268392613,807.0695970695973,805.054945054945,808.2783882783882,688.6080586080586,516.959706959707,-0.055298,-0.101379,0.996948,1.031799,-8.747864,-0.38879400000000003,0.0,15.0,-15.0
707.3717948717947,60.430808577099,,,,,,,29.118551110572287,29.20316589740835,0.08543005109222877,0.04116442205028796,707.6923076923077,62.725384615384634,0.08863369565217394,80.76923076923083,8.333333333333332,53.57142857142857,12.923076923076925,187.5,,,0.03275310882178125,0.009142681479884965,0.0005212815162909803,3.5824401072969847,0.7721680780405799,0.21554249475595405,-4.694801557999934,2021-10-21 16:10:37,2021-10-21 16:10:37.039,1.4156505128425485,1.6827960912641902,1.486721334039797,0.9487561639654764,0.8914179904682448,1.130493751203627,1.096239535654996,0.5380695192707536,0.8334015931437508,1.015307184935595,1.0872741755244058,0.8758816542823221,0.6553120272013891,0.04000783586957389,0.2419882679121547,0.8206056171154599,0.2438807818790748,-0.2552367262066088,-0.3312359230970152,0.5579821133486044,776.4468864468864,776.4468864468864,807.4725274725273,888.8644688644687,943.6630036630037,-0.09967000000000001,-0.100159,0.993591,-1.629944,-2.033691,22.505188,0.0,18.0,-18.0
708.0128205128206,60.59475718361282,,,,,,,29.24603834028023,29.32468125780712,0.08558426546531099,0.04130721576354654,707.6923076923077,68.42769230769218,0.0966913043478259,86.53846153846155,8.333333333333332,54.16666666666666,12.923076923076925,187.5,,,0.034425867188359154,0.009719980232154521,0.0005394783344512242,3.5417630865622,0.7704065396576898,0.2175206304963448,-4.633571694240816,2021-10-21 16:10:38,2021-10-21 16:10:38.016,1.143475400839869,1.639754999657644,1.532908518316993,1.0278287318014092,1.0456662672499,1.0323945207737288,1.022129430692742,0.9275355476611884,1.026764961985478,0.9802440196473798,1.100494675157148,1.0384938874514829,0.6222395680960281,0.2812181495478695,0.3283625486304474,0.9069971985126828,0.2515606329493607,0.1690252209478456,0.15276119548369,0.5118550303810996,803.4432234432236,788.5347985347986,801.8315018315019,846.959706959707,853.4065934065933,-0.311768,-0.107422,0.9470209999999999,4.575806,5.203857,-4.919739,0.0,23.0,-23.0
708.974358974359,61.01032390314202,,,,,,,29.391060907272553,29.464970692395806,0.08605434474584228,0.041455745945158384,711.5384615384614,62.72538461538471,0.08815459459459472,84.61538461538464,8.333333333333332,54.76190476190477,12.923076923076925,187.5,,,0.034940607894260275,0.010071519752839543,0.0005455769200110941,3.4692488076994716,0.7669527739877539,0.2210717122062904,-4.598043664786781,2021-10-21 16:10:39,2021-10-21 16:10:39.073,1.071647429436456,1.4077602799571092,1.349982113030305,1.1448434788674628,1.099547350017751,0.901761193736656,0.987752607412996,1.089835621512182,1.285874116934278,0.7222893751712971,0.91522541401207,1.0384938874514829,0.9090756588381212,0.6796238337250792,0.7436679006957774,0.8912273500375747,0.7204510786523107,0.6391741882908827,0.5386437055304739,0.4901165188254692,795.3846153846154,820.7692307692308,778.4615384615387,757.9120879120877,767.9853479853481,-0.384705,-0.098694,0.9272459999999999,4.358978,-4.231873,1.203766,0.0,28.000000000000004,-28.000000000000004
709.569597069597,60.939607022673655,,,,,,,30.029099258110982,30.119093640645186,0.08588249450701381,0.04232016053411266,715.3846153846154,68.42769230769235,0.09565161290322588,84.61538461538464,8.928571428571429,55.35714285714286,12.923076923076925,187.5,,,0.035516043079029044,0.010624717586359085,0.0005614805006548065,3.3427752587633544,0.7604783451988307,0.22749909471334506,-4.544572144632294,2021-10-21 16:10:40,2021-10-21 16:10:40.000,0.8709691840410542,1.2759625089227848,1.3789376857952729,1.6852197897268493,0.5710766246443041,0.8563629998068875,0.9451235343677442,0.742604511480588,0.7262356209387749,0.6798409687285116,0.8751313800604389,0.8490290879088624,0.8498620078332964,0.7484954908019648,0.7038453712682275,0.9680990659846838,0.7533674914235778,0.6536976051797437,0.4208721264386759,0.8862235493913718,799.0109890109891,789.3406593406594,811.098901098901,901.7582417582418,800.2197802197803,-0.393982,-0.0979,0.923645,3.8206480000000003,-5.3085330000000015,0.904694,7.000000000000001,30.0,-23.0
709.7527472527472,60.88711731279121,,,,,,,29.981865097124853,30.07029730371523,0.08578637778926264,0.04224268974396533,715.3846153846154,68.42769230769235,0.09565161290322588,84.61538461538464,8.928571428571429,54.76190476190477,12.923076923076925,187.5,,,0.03591187397458802,0.011150982819125016,0.0005809712467092492,3.2205119994441818,0.7537571066732807,0.234048842793745,-4.4962276397475645,2021-10-21 16:10:41,2021-10-21 16:10:41.005,0.8012064559148735,1.481422317964755,1.4582401173645592,0.9819816901802848,0.4228451730429198,1.0046294571826702,1.024368446317046,0.5793565343555366,0.4584914494179329,1.006888689465793,1.024061293226741,0.6566424899976283,0.8842565431977534,0.6702928656180077,0.5903998111137971,0.7834532357974013,0.4024690302275015,0.5253229433110593,0.32589147890382597,0.4872879311597711,863.8827838827838,776.0439560439563,789.7435897435898,858.2417582417582,759.1208791208792,-0.385071,-0.101257,0.927551,3.9851379999999996,-4.755249,0.9869379999999999,6.0,33.0,-27.0
710.2564102564102,60.59658446423314,,,,,,,29.94047407932641,30.02824628793797,0.0853164907619167,0.042154458090026346,715.3846153846154,62.725384615384634,0.08768064516129036,84.61538461538464,8.928571428571429,54.16666666666666,12.923076923076925,187.5,,,0.03611689065123331,0.011841679400276969,0.0006103476300106214,3.0499804487519357,0.7436214841776219,0.24381188557517294,-4.4361298183451865,2021-10-21 16:10:42,2021-10-21 16:10:42.018,0.822701701264092,1.5939186366738993,1.3882048555641193,1.025315148173018,0.3904623013941711,1.0936800689325878,0.972201064827844,0.5796444862088026,0.5229818569031832,1.00139539861136,1.016612504469222,0.6134348389421831,0.7814933408708385,0.6476778690248691,0.6066068519274497,0.7719158130159087,0.3748473078750857,0.4825663086270726,0.2045039133771792,0.4830088432194454,810.6959706959708,799.8168498168499,804.6520146520148,849.3772893772895,815.5311355311355,-0.395081,-0.089111,0.9242549999999999,3.596344,-4.321594,1.3607790000000002,12.0,30.0,-18.0
710.5311355311355,60.1911441372788,,,,,,,30.12922598242391,30.218569012202817,0.08471288748280505,0.04240380818766195,715.3846153846154,62.725384615384634,0.08768064516129036,84.61538461538464,9.523809523809524,54.16666666666666,12.923076923076925,187.5,,,0.03604442330707807,0.012405736700087395,0.0006372471296351595,2.9054641556937235,0.7342906339833076,0.25272747989141325,-4.389596276250874,2021-10-21 16:10:43,2021-10-21 16:10:43.032,1.171011034753938,0.9061544897538372,0.8427507109388389,1.174687171642282,1.049428131183715,0.2792620120736083,0.1624101938779185,1.1505965827731022,0.9736635707113884,0.5028290900007324,0.4020815310072983,1.01825029131118,0.8844767212324444,0.6087507955907501,0.5601757479345456,0.7773860366797741,0.5637888431516711,0.4585173529488124,0.2886955100614492,0.9060386408529896,848.1684981684982,787.3260073260074,788.5347985347986,859.4505494505495,705.1282051282053,-0.401611,-0.091431,0.918335,3.379517,-5.286102,1.114044,20.0,26.0,-6.0
710.8516483516484,59.699197304202954,,,,,,,30.12922598242391,30.21856901220282,0.08398263891296573,0.04238468891826977,715.3846153846154,62.725384615384634,0.08768064516129036,84.61538461538464,9.523809523809524,54.16666666666666,12.923076923076925,187.5,,,0.035672074903943043,0.012929731189101191,0.0006644694610565106,2.7589185252367794,0.7240668084351228,0.26244588298343496,-4.348225876120497,2021-10-21 16:10:44,2021-10-21 16:10:44.050,0.9360027171459232,0.9814534076497574,0.5253112194691947,0.9950280908641728,0.9108192110266946,0.579312365819225,0.3232305082658309,1.0328596304363942,0.8781578725716973,0.5238089032096952,0.4988826846230916,0.9412787463520704,0.9812020690173844,0.6291410222832796,0.4130949699601667,0.8391588671374346,0.5634613226823998,0.3539710156557803,0.2924092165749951,0.9859030698114972,799.8168498168499,802.6373626373628,786.9230769230769,874.3589743589743,771.6117216117218,-0.393921,-0.091675,0.923523,3.678589,-5.001983999999998,1.315918,25.0,23.0,2.0
711.9299861814833,58.87214156962556,,,,,,,30.23163350940125,30.32253617809319,0.08269372369801829,0.04246433511187248,715.3846153846154,57.02307692307691,0.07970967741935482,80.76923076923072,9.580838323353293,53.892215568862284,12.846153846153848,187.5,,,0.03490820875946432,0.01353637453367595,0.0006986496004332745,2.5788447765403717,0.7103360260213826,0.2754473756944488,-4.302374807051007,2021-10-21 16:10:45,2021-10-21 16:10:45.077,0.598368755839643,0.9137241103740492,0.7193424098207496,0.9950280908641728,0.6508020445638334,0.5268114796838775,0.057499891405937524,1.0328596304363942,0.8229294600827287,0.5022680014747509,0.3574045823953456,0.9412787463520704,0.933443376181875,0.6629419056268366,0.4214194584488513,0.8391588671374346,0.6483456127535693,0.2871675887334468,0.2845808321127094,0.9859030698114972,863.4798534798535,785.7142857142858,793.3699633699632,749.8534798534797,1037.142857142857,-0.392029,-0.08038300000000001,0.9293819999999999,4.388885,-5.016937,1.443024,36.0,13.0,23.0
713.3578995854447,58.92385605061062,,,,,,,31.30898226433525,31.394907993496922,0.08260069186148103,0.04388958513325488,715.3846153846154,57.02307692307691,0.07970967741935482,76.9230769230769,10.179640718562874,55.08982035928143,12.846153846153848,187.5,,,0.034121101320725926,0.013978740193019059,0.0007252262152350039,2.4409282130993395,0.6988439116997566,0.28630252538742545,-4.270217661185634,2021-10-21 16:10:46,2021-10-21 16:10:46.028,0.598368755839643,1.128433655628199,0.9071798490874302,0.9950280908641728,0.6508020445638334,0.7226812978991789,0.2189299796125729,1.0328596304363942,0.8229294600827287,0.3623587842525838,0.34525978327468,0.9412787463520704,0.933443376181875,0.5177037444384677,0.4583335823316296,0.8391588671374346,0.6483456127535693,0.3826440684685365,0.2348309191493945,0.9859030698114972,795.3846153846154,800.6227106227108,799.8168498168499,772.8205128205127,748.2417582417582,-0.39056399999999997,-0.076904,0.929565,3.8206480000000003,-5.555267,0.70282,42.0,10.0,32.0
714.2791340396132,58.827421037810154,,,,,,,31.34880473447846,31.43372817597793,0.08235914817378336,0.04388873094638082,715.3846153846154,57.02307692307691,0.07970967741935482,80.76923076923072,10.179640718562874,55.08982035928143,12.846153846153848,187.5,,,0.03325171897590205,0.014385802874156766,0.0007499423358885182,2.311426012630603,0.6871969741609026,0.2973043352483573,-4.241513470247512,2021-10-21 16:10:47,2021-10-21 16:10:47.024,1.056375177829139,0.8867313867610079,0.644022771226234,0.7595591197038087,-0.03495421266725278,0.1913531044724018,-0.03978160275322378,-0.1848046586241461,0.4592307243676448,0.1716262800442858,0.3119865218033662,0.3229093461792464,0.6542108608161498,0.5372934845247789,0.5760020016823397,0.6365890561789603,0.4963558034656587,0.3606117714751458,0.07898535244356655,0.8017173997121351,809.4871794871796,799.4139194139194,799.8168498168499,871.1355311355313,733.3333333333335,-0.375305,-0.07147200000000001,0.9337770000000001,3.7159730000000004,-7.005767999999999,3.125305,47.0,5.0,42.0
715.6163113994438,58.88464666538054,,,,,,,31.437954582717186,31.51978441601234,0.08228522146208067,0.043931299611153066,715.3846153846154,57.02307692307691,0.07970967741935482,84.61538461538464,10.240963855421684,55.42168674698795,12.769230769230768,187.5,,,0.032086579831603214,0.014818487025699859,0.0007754892269097298,2.165307414714816,0.6729489432743253,0.3107867911508338,-4.211879754359486,2021-10-21 16:10:48,2021-10-21 16:10:48.002,0.7332113683768441,0.6022784911930258,0.5562533605879045,0.6712431158582014,0.00044611509855721726,0.07340322861765765,-0.0330058260588325,-0.1493015080269577,0.4971028241753803,0.1117291145559665,0.3742186808524843,0.6873802627989671,0.6702898741721024,0.4640935588248164,0.5444473625395936,0.8263081305101225,0.4308659555908625,0.2260442652276519,0.08715459729544511,0.7885565808827794,809.0842490842491,804.6520146520148,805.8608058608058,779.6703296703297,701.5018315018315,-0.22821,-0.041443,0.9825440000000001,4.231873,-3.730927,1.136475,53.0,0.0,53.0
716.4040778498611,58.82442988366645,,,,,,,31.48354989976253,31.570525987772843,0.08211068543916701,0.043946636923471886,715.3846153846154,57.02307692307691,0.07970967741935482,84.61538461538464,10.240963855421684,56.02409638554217,12.769230769230768,187.5,,,0.03114420301092393,0.015090514198410057,0.0007902116706865868,2.0638264940107414,0.6622913368010671,0.3209045618529695,-4.193688931341578,2021-10-21 16:10:49,2021-10-21 16:10:49.034,0.3814530495557649,1.5607469235588682,1.2949539339500902,0.8318734478068095,0.1670634100544526,0.737409882241893,0.6930773533528971,0.005411267931354409,0.2692759182482195,0.5623951185445671,0.5731711843401679,0.4570125638566217,0.6577200751438723,0.6403486607057013,0.5235404683082443,0.6558511643322457,0.4502463851438321,0.3919999064587723,0.3213424019382236,0.6540658877163986,851.7948717948718,777.6556776556778,811.5018315018315,732.5274725274727,579.0109890109892,-0.290527,-0.047485,0.9639280000000001,3.8505550000000004,-4.321594,0.657959,56.99999999999999,0.0,56.99999999999999
717.0064874884152,58.471415194178526,,,,,,,31.93030782823893,32.02665493119537,0.08154935305954711,0.044532801844076535,715.3846153846154,57.02307692307691,0.07970967741935482,76.9230769230769,10.843373493975903,56.62650602409639,12.769230769230768,187.5,,,0.030154375764122894,0.015247237605622209,0.0007966940454873579,1.9776943564520757,0.6527160290331422,0.3300388793160613,-4.183356932951597,2021-10-21 16:10:50,2021-10-21 16:10:50.020,0.4303537132999403,1.6092817689744119,1.315197123919951,0.8544253646144546,0.2002363772593713,0.9364158257753318,0.8761063914720966,-0.001704441087985113,0.2633465466814042,1.127930818063445,0.5660010941242092,0.4168329740741635,0.6522089321547577,0.8575476931430285,0.5826574109512334,0.6042446524449929,0.4356451769452205,0.5533175118047687,0.5912896663637909,0.602553712196809,791.7582417582418,787.7289377289377,799.4139194139194,789.3406593406594,627.7655677655678,-0.299744,-0.048889,0.9600219999999999,4.052429,-4.650574,-0.86731,56.99999999999999,8.0,48.99999999999999
717.2845227062096,58.3524730832182,,,,,,,31.93030782823893,32.02665493119537,0.08135191996484584,0.04451553995305873,715.3846153846154,57.02307692307691,0.07970967741935482,76.9230769230769,10.843373493975903,56.62650602409639,12.769230769230768,187.5,,,0.028963597172236476,0.015297984179444475,0.0007932966247531638,1.8932950140682028,0.6428515284712532,0.3395411299847724,-4.180034212241417,2021-10-21 16:10:51,2021-10-21 16:10:51.019,0.4303537132999403,1.559837628958224,1.18339694096228,0.8544253646144546,0.2002363772593713,1.0355358511889399,0.8703346870147889,-0.001704441087985113,0.2633465466814042,1.127930818063445,0.5789939648947529,0.4168329740741635,0.6522089321547577,0.8244165638148521,0.5391527434385343,0.6042446524449929,0.4356451769452205,0.4428066031930267,0.4824668137269241,0.602553712196809,802.6373626373628,776.0439560439563,796.1904761904763,904.981684981685,794.1758241758242,-0.32629400000000003,-0.05438200000000002,0.954285,8.149719000000001,-1.517792,-10.078735,56.99999999999999,2.0,54.99999999999999
718.0259499536608,58.28653634820361,,,,,,,32.06479901455245,32.162103027847145,0.08117608611773049,0.04465688046040928,715.3846153846154,57.02307692307691,0.07970967741935482,76.9230769230769,10.843373493975903,57.228915662650614,12.769230769230768,187.5,,,0.028234224080283813,0.015301055592282363,0.0007850966923366179,1.8452468138554283,0.6370483826180328,0.34523749226099154,-4.17983346000402,2021-10-21 16:10:52,2021-10-21 16:10:52.022,0.4303537132999403,1.5105452796669319,1.216661520268598,0.8544253646144546,0.2002363772593713,0.7234382593247491,0.9245827502198408,-0.001704441087985113,0.2633465466814042,0.7644211574302203,0.6460594789633515,0.4168329740741635,0.6522089321547577,0.6807161742586306,0.4441666037691939,0.6042446524449929,0.4356451769452205,0.520692216457861,0.2022743951741505,0.602553712196809,750.6593406593408,794.981684981685,823.992673992674,653.956043956044,635.8241758241759,-0.404053,-0.058166999999999996,0.9204709999999999,3.701019,-1.973877,3.416901,56.00000000000001,21.0,35.00000000000001
717.8869323447636,58.33882881444563,,,,,,,32.12625264513721,32.223913965425986,0.08126464793543356,0.044751131686164534,715.3846153846154,57.02307692307691,0.07970967741935482,76.9230769230769,10.843373493975903,57.228915662650614,12.769230769230768,187.5,,,0.027508333959098887,0.015163475057864213,0.0007664604763504983,1.8141180602814573,0.6332741676860127,0.3490810116226732,-4.188865699583267,2021-10-21 16:10:53,2021-10-21 16:10:53.017,0.4303537132999403,1.3284047191786927,0.9250460520766944,0.8544253646144546,0.2002363772593713,0.6113947531165318,0.5832224649551712,-0.001704441087985113,0.2633465466814042,0.9143295415201688,0.4347355921154197,0.4168329740741635,0.6522089321547577,0.7862030289847597,0.5357720133236595,0.6042446524449929,0.4356451769452205,0.4823635742306152,0.2286798266557354,0.602553712196809,805.4578754578755,796.1904761904763,810.6959706959708,721.6483516483516,462.1611721611721,-0.40802,-0.05688500000000001,0.915588,3.37204,-4.127197,0.904694,56.00000000000001,43.0,13.000000000000007
717.995337995338,58.54896796161327,,,,,,,32.08940821807727,32.18755393684416,0.08154505309892894,0.044693059299899834,715.3846153846154,57.02307692307691,0.07970967741935482,76.9230769230769,10.909090909090908,57.57575757575758,12.692307692307693,187.5,,,0.026904556592614128,0.014965114088807812,0.0007376580587265606,1.797818341574532,0.6314537284582735,0.3512333331215463,-4.20203351399736,2021-10-21 16:10:54,2021-10-21 16:10:54.035,0.7103160404236191,1.1185814555467342,0.7586032362587277,0.6995791190513476,0.7955447629364657,0.4877746398199353,0.5383914063900848,0.631581344226471,1.072289539845088,0.6847736748310415,0.7278412750179145,0.9093616374702786,0.8453526691493467,0.6939541925006256,0.48826438643229797,0.8387193008956694,0.8053969914022279,0.5015162216476101,0.2913363505893304,0.7611737647498835,846.959706959707,796.5934065934067,807.8754578754579,922.3076923076924,1323.626373626374,-0.38861100000000004,-0.046265,0.9245,3.342133,-7.63382,4.09729,57.99999999999999,43.0,14.999999999999993
718.2113067655237,58.1052334936423,,,,,,,32.109504228335446,32.2031424283119,0.08090269945111303,0.04470760057084193,715.3846153846154,57.02307692307691,0.07970967741935482,76.9230769230769,10.843373493975903,58.433734939759034,12.769230769230768,187.5,,,0.02578081827796476,0.014312885719141957,0.0006877504864100738,1.8012313368425537,0.6321701519592676,0.3509655528575372,-4.2465950482217725,2021-10-21 16:10:55,2021-10-21 16:10:55.000,0.4240441984591707,1.128297051510863,0.7500921915096326,0.3645062117429537,0.2044122618362257,0.5082781850830216,0.4542014139115629,0.3868177682527084,0.7336959702426178,0.4448255856744071,0.7725648814931088,0.5833318908197115,0.8373948985333246,0.4915261507361442,0.4977236556864283,0.9140543983009976,0.8992321222435413,0.3515175049353527,0.2112124491146704,0.7017236807317804,780.0732600732601,789.7435897435898,803.040293040293,884.4322344322345,861.8681318681319,-0.18219000000000002,-0.043151999999999996,0.990906,-0.291595,-17.047119,25.421143,61.0,53.0,8.0
719.7668997668998,57.01113974608914,,,,,,,32.31349898680266,32.39593771178301,0.0792077820813273,0.04489439427857484,723.0769230769231,57.02307692307691,0.07886170212765957,76.9230769230769,10.909090909090908,58.78787878787879,12.692307692307693,203.125,,,0.02507012604050388,0.013795899353638005,0.0006432347622913568,1.817215782593604,0.6345379777105683,0.34918141466113073,-4.283383879263379,2021-10-21 16:10:56,2021-10-21 16:10:56.003,0.6809581401528177,0.7670264050924315,0.8085383944377263,1.0656773625141032,0.3442637948133148,0.09017463096903748,0.2603461836397559,0.3570361495880192,0.8470712375006137,0.2621936953607745,0.1640103571140938,0.4568968720704206,0.8133727244707942,0.4370124470813306,0.4042292911537455,0.8112285725368584,0.3921687645157782,0.2523284224312525,0.2735210608243906,0.3725030889709784,816.7399267399268,837.6923076923077,789.3406593406594,747.8388278388278,867.1062271062273,-0.385498,-0.056090999999999995,0.9328,5.936584,10.714264,-6.609497,64.0,46.0,18.0
721.4452214452214,54.81431860663177,,,,,,,32.50831127005564,32.598067010209945,0.07597849008802919,0.04505998557303351,723.0769230769231,57.02307692307691,0.07886170212765957,76.9230769230769,10.909090909090908,59.3939393939394,11.785714285714285,203.125,,,0.02489062392142156,0.0134397356581306,0.0006002209338341681,1.852017372556249,0.6393591771091851,0.3452230991908617,-4.309539612374412,2021-10-21 16:10:57,2021-10-21 16:10:57.050,1.427806836181471,1.3528612569307479,1.478810319978213,1.4970519556719042,0.8926186556562539,0.9416646537137284,0.9051532298894636,1.09093773045392,1.2266523459141752,0.8162849010064185,1.012534633501407,1.107057894882135,1.0459951553132192,0.7084536299761824,0.6672294205955183,0.8698328161020569,0.8762245734805665,0.6927342388692687,0.5592898080204809,0.6875918791193288,677.7289377289378,842.5274725274727,785.7142857142858,770.0,1386.8864468864472,-0.5192869999999999,-0.05658,0.8629760000000001,3.8056949999999996,-4.254303,-0.16449,63.0,36.0,27.0
722.4708624708625,53.36820769902357,,,,,,,32.62464026694034,32.71103189530892,0.0738690104629319,0.0451570325692631,723.0769230769231,57.02307692307691,0.07886170212765957,76.9230769230769,10.909090909090908,60.0,11.785714285714285,187.5,,,0.025086919890935717,0.013280246851233355,0.0005713090501039424,1.8890401791444005,0.6442707214521731,0.3410571826714568,-4.321477546911326,2021-10-21 16:10:58,2021-10-21 16:10:58.003,1.427806836181471,1.450272397183915,1.321369379090072,1.4970519556719042,0.8926186556562539,0.9036418544417496,0.7735452764679572,1.09093773045392,1.2266523459141752,0.7823912066846473,1.0156525810750159,1.107057894882135,1.0459951553132192,0.7154092828531625,0.5828986612500585,0.8698328161020569,0.8762245734805665,0.7833240811780435,0.454985136498996,0.6875918791193288,817.1428571428571,782.8937728937732,813.1135531135533,898.5347985347986,765.5677655677656,-0.497192,-0.06543,0.866699,3.117828,-4.553375,0.500946,62.0,32.0,30.0
724.5309568480301,51.31282001096729,,,,,,,32.86845640922666,32.953294187323195,0.07082212226541222,0.045365151203775,723.0769230769231,57.02307692307691,0.07886170212765957,69.23076923076928,10.975609756097562,60.365853658536594,11.714285714285715,171.875,,,0.02556728895801773,0.013236219856525035,0.0005476825189551269,1.931615614968338,0.6497208366917586,0.33636135039341586,-4.3247982785647245,2021-10-21 16:10:59,2021-10-21 16:10:59.042,0.8238323174829708,1.301175030501988,1.316207271502307,0.9493371103713302,0.5842269067804438,0.8268732168699922,0.6545712858323635,0.2253482418589462,0.6971419110874589,0.7843637599631424,0.7069945270673055,0.5607378657378117,0.7581531876354402,0.7339901571549065,0.4510035118302009,0.6680482399323122,0.646791171217146,0.7070485264368579,0.483778075704667,0.5481033811772894,813.5164835164835,815.5311355311355,772.4175824175826,679.3406593406594,456.1172161172161,-0.492004,-0.063904,0.875977,4.224396,-5.256195,0.859833,60.0,26.0,34.0
726.2387918829636,50.6638670500454,,,,,,,32.91430686148668,33.00262137806749,0.0697619951127729,0.045321603898557584,723.0769230769231,57.02307692307691,0.07886170212765957,69.23076923076928,11.042944785276074,60.736196319018404,11.642857142857142,171.875,,,0.02629947792435413,0.013228681868688448,0.0005216785914458696,1.9880648869940345,0.6566687653486283,0.330305499405261,-4.325367937815208,2021-10-21 16:11:00,2021-10-21 16:11:00.042,0.521597817437572,1.080404246472124,1.696853813611193,1.0713860129509079,0.4807078834635058,0.7906590634818751,0.8970259356190208,0.5881598826273096,0.9291665024089684,0.9643723993051392,1.009726903265932,0.9719574814423788,0.799351977692018,0.6334057252792689,0.5073015356618804,0.9100400761859364,0.6163361870040094,0.4259906582790381,0.5162949517279437,0.5543904551775762,801.8315018315019,801.025641025641,808.2783882783882,893.6996336996338,1296.227106227106,-0.503235,-0.067566,0.8701780000000001,3.9851379999999996,-4.059906,0.13458299999999998,55.00000000000001,31.0,24.00000000000001
727.2045028142587,50.52014808371589,,,,,,,33.083123314536344,33.18342021334886,0.06947172066207577,0.04549356224625355,726.9230769230769,51.32076923076927,0.07060000000000005,69.23076923076928,11.585365853658535,60.365853658536594,10.933333333333335,171.875,,,0.026925361209712798,0.01324934794429819,0.0005038863383206379,2.03220274106395,0.6619048884022687,0.3257080974390043,-4.323806939511924,2021-10-21 16:11:01,2021-10-21 16:11:01.060,0.4902274078274004,0.573723809371849,1.403636281606124,0.8497349909178719,0.7430927757346134,0.4189204312162412,0.5387688191388077,0.6840067648807104,0.9852990336302198,0.7438980166372356,0.8538122118515004,0.9084843570275608,0.7937540467429834,0.6128613090708889,0.5796797194889224,0.9176438746533556,0.5361610590572446,0.2940747973251416,0.2286442101025332,0.3909387684888739,799.8168498168499,806.2637362637363,811.5018315018315,802.6373626373628,983.956043956044,-0.504578,-0.079956,0.869568,3.828125,-4.388885,0.657959,54.0,40.0,14.0
728.0320906087776,50.33804188923792,,,,,,,32.70836430453411,32.80947467273887,0.06914261409431204,0.04492709143793855,730.7692307692308,57.02307692307691,0.07803157894736841,69.23076923076928,11.042944785276074,59.509202453987726,10.866666666666667,171.875,,,0.02755457981397404,0.013291710690019946,0.0004895521793876308,2.0730649693318512,0.6666025905176937,0.3215541241491045,-4.320614694448909,2021-10-21 16:11:02,2021-10-21 16:11:02.061,0.4652546600368767,0.9439971342736038,1.400359223056114,1.0198555639773679,0.5686171847735161,0.8974509992157579,0.6017795090506031,0.4057860104911311,0.8002289476226554,0.9838247148833504,0.58155529768053,0.6473865080052457,0.7832112619037348,0.5758288188013567,0.5913276782681379,0.8209507332476399,0.5981384282048423,0.1384308161137572,0.2956186752454287,0.41024294789574295,782.4908424908424,784.5054945054945,801.4285714285713,664.8351648351647,509.3040293040293,-0.498108,-0.072754,0.877075,4.11972,-5.390778,0.7775880000000001,51.0,49.0,2.0
728.2208588957054,50.406016164479475,,,,,,,32.71394736581989,32.81483312501925,0.06921803399166096,0.044923112220965816,730.7692307692308,57.02307692307691,0.07803157894736841,69.23076923076928,11.042944785276074,59.509202453987726,10.866666666666667,171.875,,,0.02855708099371859,0.013486219885609359,0.0004808994733696008,2.11750077011504,0.6715489240682936,0.31714223368703165,-4.3060868640711405,2021-10-21 16:11:03,2021-10-21 16:11:03.048,0.8224345602454864,0.8441244503345257,1.009319110365966,1.022420097912953,0.3009143129706758,0.30278509552351196,0.1319455143863477,0.1876559587688339,0.6133193189517846,0.6576716942864952,0.3218503576064684,0.5758245487257713,0.7686140074291283,0.4240378481092055,0.4657020963831321,0.7677948758735952,0.3688414143659758,0.25496541261181305,0.3778591130814554,0.3899581956555394,801.4285714285713,798.6080586080586,805.4578754578755,898.1318681318681,1214.835164835165,-0.491821,-0.073608,0.870239,3.6860660000000003,-4.957123,1.016846,48.0,56.99999999999999,-8.999999999999991
729.1275797373359,50.9378785676753,,,,,,,32.79658853527358,32.895987973140485,0.06986140695161386,0.04498058974409988,730.7692307692308,57.02307692307691,0.07803157894736841,69.23076923076928,10.975609756097562,59.7560975609756,10.933333333333335,171.875,,,0.029281466320214413,0.013641452777307385,0.0004784146557244352,2.1465064460674057,0.6746674304225566,0.3143095291694131,-4.294642123638211,2021-10-21 16:11:04,2021-10-21 16:11:04.003,1.16768831864741,1.262599644092532,1.078416670168442,1.1607179707176092,0.6205234852701803,0.476665122674255,0.7061694158570044,0.7710619849176853,0.9708425846276788,0.5068606285936748,0.8625404765489594,0.8300767283826329,0.7962814603406484,0.3937564387467897,0.5890333366508727,0.7631111911455586,0.5190985159389692,0.1890906366489735,0.3329972527137908,0.3815843726327953,805.8608058608058,809.0842490842491,803.040293040293,886.0439560439563,734.1391941391942,-0.490967,-0.072876,0.874878,3.603821,-4.665527,0.9420780000000001,47.0,56.99999999999999,-9.999999999999991
729.1175082586127,51.123275081774814,,,,,,,32.98635982120156,33.087786297181914,0.07011664718335328,0.04524148638260589,730.7692307692308,57.02307692307691,0.07803157894736841,69.23076923076928,11.042944785276074,60.122699386503065,10.866666666666667,148.4375,,,0.03029477499961655,0.013961556311803123,0.0004859567478078672,2.1698709171845905,0.6770948986675399,0.3120438609067452,-4.271447704208232,2021-10-21 16:11:05,2021-10-21 16:11:05.019,1.155374925939462,1.358084250340657,1.2091763897244951,1.17541639452702,0.7162104762004372,0.636614876045474,0.8788340941138203,0.9006162813693293,1.024846982821746,0.48823568141102797,0.8744212480143432,1.056193835270895,0.6715332291094284,0.4674834759632145,0.6267356571862288,0.5893520367498951,0.4388718912609041,0.1956427911610238,0.1494448074411548,0.3888502184703747,820.3663003663004,781.6849816849817,823.1868131868132,915.4578754578756,1288.571428571429,-0.49762,-0.075989,0.8701780000000001,3.596344,-4.441223,1.099091,41.0,56.00000000000001,-15.000000000000007
729.5894289759318,51.42134090624261,,,,,,,32.98635982120156,33.08092905169257,0.07047983271690046,0.045212222807972914,730.7692307692308,57.02307692307691,0.07803157894736841,73.0769230769232,11.042944785276074,60.122699386503065,10.866666666666667,148.4375,,,0.03111559825880673,0.014207792312013669,0.0004964340983988341,2.190037521346392,0.6790859302373001,0.3100795870473541,-4.25396471051838,2021-10-21 16:11:06,2021-10-21 16:11:06.014,0.945812624268644,0.9018028878781652,1.1077365160902,1.081427365119605,0.9225554233972758,0.4656210349158342,0.2995249539861076,0.9287863433754004,0.9816871992130588,0.2566687857769315,0.1996425939880133,1.042657260796634,0.7084052100791683,0.4482192253085966,0.4594711581477364,0.7243922855162322,0.4015848241678613,0.2193602861569908,0.09980668877982764,0.3982993662575411,794.1758241758242,783.2967032967032,799.8168498168499,688.2051282051282,479.4871794871795,-0.461487,-0.068909,0.8927,3.902893,-6.863708,0.9869379999999999,42.0,51.0,-9.0
730.5332704105708,51.618719050271395,,,,,,,32.84765615483015,32.94895876731403,0.07065895714956402,0.044963942759744885,738.4615384615386,57.02307692307691,0.07721874999999997,76.923076923077,11.042944785276074,60.122699386503065,10.866666666666667,148.4375,,,0.031179233745113957,0.014182014122747172,0.0005022134766448469,2.198505337482648,0.6798273141861095,0.30922249884757225,-4.255780728278858,2021-10-21 16:11:07,2021-10-21 16:11:07.042,0.8827601185908199,1.090316498104561,1.030571274803866,0.9574274365055911,0.7131203782239696,0.4385498997094329,0.3081501279456294,0.6439439146668632,0.5445624174335151,0.3254699739966249,0.3625719573276378,0.7419221969589196,0.6640385490734094,0.4822378792544836,0.3631332399987397,0.5876645108595052,0.3764099558222931,0.1690578846082066,0.0157458984769113,0.3658248979627899,745.4212454212454,832.0512820512822,778.8644688644687,795.7875457875458,926.7399267399268,-0.390625,-0.042725,0.927063,4.9272160000000005,-1.637421,0.6654359999999999,43.0,41.0,2.0
730.2973100519113,51.56399171732765,,,,,,,33.15754656627492,33.256950256471484,0.07060684875542313,0.04540280528202685,738.4615384615386,57.02307692307691,0.07721874999999997,76.923076923077,11.65644171779141,60.122699386503065,10.866666666666667,148.4375,,,0.03148454551229534,0.014299918604447003,0.0005170003789915363,2.2017290016255227,0.6799902736380241,0.3088437646667649,-4.247501433729187,2021-10-21 16:11:08,2021-10-21 16:11:08.020,1.104163639179152,1.752197376535962,1.576236185857249,1.129330370338937,0.5117698974462401,1.006003831399247,0.8504119988746035,0.3401119884567742,0.3188675895751849,0.8024091293291816,0.5476289629519551,0.1169581608303813,0.6268696690502364,0.3528065027362994,0.2904001533694247,0.5915090097864865,0.4359807590840232,-0.04532986473527211,0.1150679781870495,0.3464492440265737,795.7875457875458,796.1904761904763,802.6373626373628,884.8351648351648,942.8571428571428,-0.409973,-0.042908,0.9170530000000001,6.39267,-2.7215580000000004,-5.248718,37.0,36.0,1.0
729.636621047664,51.3548850936095,,,,,,,33.196079463142645,33.28916698907299,0.07038419346313855,0.045496728790116604,730.7692307692308,57.02307692307691,0.07803157894736841,76.923076923077,11.65644171779141,60.122699386503065,10.866666666666667,148.4375,,,0.03215423784714105,0.014621890362234987,0.0005472558632258424,2.1990479377542127,0.6794577031475844,0.3089781225240061,-4.2252355332765195,2021-10-21 16:11:09,2021-10-21 16:11:09.002,1.284148948402583,1.860210097971887,1.663441908939046,0.5957293495242079,0.8567341725672865,1.175690918489331,1.0723963281066602,0.3848928296283847,0.6908890605773865,0.9640812843535548,0.922062779646828,0.7731522416012866,0.8745076144483447,0.4476175155745495,0.4838744683819224,0.6242624278807339,0.4214400391971868,0.07840929085582546,0.1689654202658928,0.3813645972486167,796.5934065934067,802.2344322344322,803.4432234432236,867.1062271062273,861.0622710622711,-0.41607700000000003,-0.035583,0.9169309999999999,4.351501,-5.076752,1.562653,32.0,27.0,5.0
728.9399624765479,50.68136894295869,,,,,,,32.59674287166821,32.6968869217709,0.06952749410358917,0.044718007723052976,730.7692307692308,57.02307692307691,0.07803157894736841,71.15384615384619,10.975609756097562,59.7560975609756,10.933333333333335,148.4375,,,0.032798593128566034,0.014960574128796946,0.0005783279702564119,2.192335190227323,0.6785331547304784,0.3095024692187335,-4.202336929578828,2021-10-21 16:11:10,2021-10-21 16:11:10.065,0.9649007656953008,1.382439997968119,1.297149325450903,0.7622108493217941,0.6075009735289167,0.8820683902257762,0.7413422330172962,0.2825394186927818,0.7246788581299073,0.9204899740795572,0.8282599482088543,0.7289414658241227,0.8051451961335041,0.3986589281108094,0.4040608608136503,0.5862290042521818,0.3424255660923267,-0.1760925832076364,0.09752120707768208,0.3788926683887681,800.2197802197803,800.6227106227108,811.5018315018315,893.6996336996338,934.3956043956044,-0.375305,-0.039185000000000005,0.938049,4.059906,-5.779572,1.7720029999999998,23.0,23.0,0.0
728.9287399716848,50.779836843091175,,,,,,,32.29819423536955,32.39610305590349,0.06966365031109037,0.04430912442363594,730.7692307692308,57.02307692307691,0.07803157894736841,73.0769230769232,11.042944785276074,58.895705521472394,10.866666666666667,148.4375,,,0.03334923065981294,0.01528106095192712,0.0006117558476966043,2.1823897414405127,0.6772510969874781,0.3103254584309264,-4.181141063627549,2021-10-21 16:11:11,2021-10-21 16:11:11.020,0.8940166415909953,0.8205061250163259,1.097963398002843,1.090448857123714,0.8074224775950912,0.03227683606700684,0.4622086709866735,0.9158508696144564,0.6295917572936238,0.5620469404174611,0.6386714288723544,0.7819133702155441,0.7043185237543266,0.2452344955542227,0.2868642774016599,0.7844004100108829,0.4512695168953707,-0.1095838216765586,0.09959954985781072,0.3360390662865254,804.6520146520148,811.5018315018315,797.8021978021977,841.7216117216118,871.9413919413921,-0.388733,-0.035522000000000005,0.933716,5.0617980000000005,-3.5290529999999998,-0.971985,15.0,27.0,-12.0
729.0337711069418,50.390180640103296,,,,,,,32.204604178497206,32.303536030737405,0.06911913087865935,0.04417436537898477,726.9230769230769,51.32076923076927,0.07060000000000005,71.15384615384619,10.975609756097562,58.536585365853654,10.933333333333335,148.4375,,,0.03396703255134754,0.0156716457545452,0.000655265151168105,2.1674196241639896,0.6753702377771862,0.3116010532744382,-4.1559022023124905,2021-10-21 16:11:12,2021-10-21 16:11:12.000,0.829265384118301,1.190780183918175,1.373531564802821,1.009465282938597,0.7922356424890467,0.6353583658626574,0.9336711787464496,0.8980930936909345,0.6817043804480556,0.8595868616178659,0.9286725433313514,0.7827949443984928,0.716154500217011,0.4336882555493478,0.4713753226046725,0.8108082146040491,0.5069306949491846,0.1915151412782327,0.1705815907500081,0.3425008663340891,811.5018315018315,818.3516483516484,796.5934065934067,857.8388278388278,887.2527472527472,-0.40960699999999994,-0.033875,0.9193120000000001,4.486084,-2.69165,-2.377625,12.0,30.0,-18.0
729.7310051911279,50.25695779560526,,,,,,,32.52358562468453,32.622208865345385,0.06887052549239316,0.04456928017765409,730.7692307692308,57.02307692307691,0.07803157894736841,73.0769230769232,11.65644171779141,58.895705521472394,10.866666666666667,148.4375,,,0.034628843292800415,0.016063416335683537,0.0006943918523834862,2.1557583125001463,0.6738879124220347,0.3125990091349765,-4.1312108698179415,2021-10-21 16:11:13,2021-10-21 16:11:13.034,0.9371155606207466,1.394667569000669,1.5134900577719084,0.9460387498487371,0.445346871260193,0.9697252828661824,1.042443790287062,0.4450572037100081,0.7833171211384765,0.9429992642480683,1.017166163003728,0.7555298351131958,0.7340608375273028,0.4091648076394586,0.4533809297994537,0.592774509800433,0.3508816114212419,0.1924354391703609,0.1776801589895113,0.2324623524060787,792.9670329670329,793.7728937728937,804.6520146520148,874.3589743589743,861.8681318681319,-0.418091,-0.053405999999999995,0.916809,3.005676,-4.269257,1.973877,10.0,45.0,-35.0
730.2973100519113,50.26551789337162,,,,,,,32.59089908536345,32.688486418697856,0.06882884162588332,0.04462689186551545,730.7692307692308,57.02307692307691,0.07803157894736841,76.923076923077,11.65644171779141,59.509202453987726,10.866666666666667,148.4375,,,0.035660748414727834,0.016638441842473813,0.0007474566321669235,2.143274517671167,0.6722526400038084,0.3136568061912399,-4.096039487247915,2021-10-21 16:11:14,2021-10-21 16:11:14.013,1.132564094503117,1.5038496978670333,1.1710586784477108,0.5981085702370745,0.8102838962945182,1.0369994780643441,0.8812187518128286,0.3651217523474208,0.9663138641482396,1.00108350367615,0.8941889144498637,0.659355169268207,0.8986414795136627,0.4877913792457283,0.4600264047955245,0.7810451036671915,0.466932707448026,0.1677133806151145,0.1861592694654489,0.3175332566260051,803.040293040293,790.952380952381,782.4908424908424,876.3736263736264,888.8644688644687,-0.416443,-0.047057999999999996,0.914856,2.616882,-5.33844,5.158997,5.0,56.00000000000001,-51.00000000000001
730.7692307692308,50.185700819461324,,,,,,,32.60231068157673,32.70058753293799,0.06867516954242077,0.044613688301105014,734.6153846153845,57.02307692307699,0.07762303664921476,76.923076923077,11.585365853658535,59.14634146341463,10.933333333333335,148.4375,,,0.03640873132215381,0.0170344557831407,0.0007813497090627577,2.13735805743722,0.6714438418681653,0.3141466351563266,-4.072517175362752,2021-10-21 16:11:15,2021-10-21 16:11:15.001,1.005561844674424,1.6829879356427049,1.5513110792637268,1.042056237242522,0.7753274179643047,1.1910021696431707,1.0593599731504542,0.9034612675020852,0.8707048188493657,0.9990331429940178,0.9364889763504324,1.043795637395487,0.7693577102743518,0.3611153593303956,0.4736781080457144,0.7190683105848393,0.5658638249694443,0.2072596696452123,0.2306544912890927,0.4211608965617586,801.8315018315019,780.0732600732601,821.1721611721613,841.7216117216118,775.2380952380953,-0.447021,-0.043274,0.902283,3.656158,-2.3028560000000002,-0.067291,6.0,64.0,-58.0
731.2411514865503,50.03244802581639,,,,,,,32.49549719589808,32.59538866692465,0.06842126967841558,0.04443882449700422,738.4615384615386,57.02307692307691,0.07721874999999997,69.23076923076928,11.042944785276074,59.509202453987726,10.866666666666667,148.4375,,,0.03792167862528977,0.017794723426371294,0.0008413131318399311,2.131063108802853,0.6704952366313459,0.31462946069579495,-4.0288533023508615,2021-10-21 16:11:16,2021-10-21 16:11:16.087,1.2152911288495558,1.528426180942121,1.605937829288139,1.368557222627087,1.0088850391913209,1.044802337209699,1.056273879716048,1.1487237927851979,1.035365746572568,0.7595810446658965,0.9611373737187658,1.11848629179026,0.8610178185879631,0.5103044380455012,0.4183674639191355,0.7237036047404287,0.5387246641078139,0.3547211821414978,0.3140540639101115,0.4721093745021938,796.1904761904763,799.0109890109891,796.5934065934067,795.7875457875458,616.080586080586,-0.512939,-0.060242,0.8660889999999999,6.093597,-3.9402769999999996,-2.66922,8.0,68.0,-60.0
731.1939594148184,50.02922320627878,,,,,,,32.57968983341183,32.680573530815714,0.06842127531567363,0.044556836683232,730.7692307692308,57.02307692307691,0.07803157894736841,69.23076923076928,11.042944785276074,60.122699386503065,11.642857142857142,148.4375,,,0.039165894597641984,0.01839071508035332,0.0008869169320580938,2.1296558848591296,0.6701494052363485,0.3146749716706822,-3.9959093569264823,2021-10-21 16:11:17,2021-10-21 16:11:17.000,1.598902735741208,1.251753036815593,1.3015472413803078,1.4941482946461282,1.076363305437616,0.6433523264629155,0.7154163362476428,0.9990201821990446,1.012396535607627,0.7793254446765412,0.7922903053720446,1.051753835812061,0.9634164828489956,0.6815817536814874,0.4547411102108002,0.7565035877480429,0.7369495769869705,0.5454956752655311,0.2959637329168988,0.5623784417491831,780.0732600732601,774.8351648351648,828.4249084249085,752.2710622710623,732.5274725274727,-0.5058590000000001,-0.044922000000000004,0.8656010000000001,3.334656,-4.6804809999999994,0.201874,12.0,69.0,-57.0
730.9108069844267,50.03813574256007,,,,,,,32.66925616002802,32.77000258489097,0.06845997523145969,0.04469663856088544,730.7692307692308,57.02307692307691,0.07803157894736841,69.23076923076928,11.042944785276074,60.736196319018404,10.866666666666667,148.4375,,,0.040894846878170535,0.01917215065022144,0.0009421397794091213,2.1330338794149943,0.6703069193037321,0.3142504794567869,-3.954296539890597,2021-10-21 16:11:18,2021-10-21 16:11:18.039,1.6230862609251169,1.755187090141781,1.202347954744468,1.299062020328204,0.8745672320304202,0.9338536660799156,0.8541692579012067,0.4451642488292167,0.8839065710631633,0.9204548691245972,0.7855722020109328,0.3577710157638193,0.9115027539998124,0.4657827984392439,0.329230820489335,0.658697224862866,0.6657405337094671,0.3068999104608294,0.06160236846218198,0.4181027754662875,811.5018315018315,812.7106227106227,808.6813186813188,877.9853479853481,889.6703296703297,-0.50061,-0.040588,0.875732,3.177643,-5.413208,2.1832279999999997,15.0,70.0,-55.0
730.5804624823029,50.1655592001129,,,,,,,32.57968983341183,32.680573530815714,0.06866534458047882,0.04459425279826863,730.7692307692308,57.02307692307691,0.07803157894736841,73.0769230769231,11.042944785276074,60.736196319018404,11.642857142857142,148.4375,,,0.042292897507255935,0.01976708140002867,0.0009812162573306373,2.139562065404081,0.6708771525796637,0.31355816380720913,-3.9237372804149713,2021-10-21 16:11:19,2021-10-21 16:11:19.026,1.573068111059929,1.586980977962249,1.1517523614764809,1.1265446426869852,0.894822625648735,0.6796947139348257,0.5535856129486187,0.3562169070053187,0.8786540859851473,0.743810456142509,0.6712574936289386,0.1357807189663137,1.047566383180847,0.397857072806739,0.2029740448092874,0.6734132458588457,0.5691704694104618,0.1345974029552328,0.2467332915010942,0.3059251331453197,783.2967032967032,790.5494505494507,790.5494505494507,671.2820512820513,501.2454212454213,-0.502869,-0.034363,0.875244,4.201965,-4.9047849999999995,1.009369,22.0,74.0,-52.0
731.2883435582823,49.93332419232448,,,,,,,32.84209582365957,32.938112438761635,0.06828130741064505,0.04490991291322576,730.7692307692308,57.02307692307691,0.07803157894736841,69.23076923076928,11.65644171779141,61.34969325153374,11.642857142857142,148.4375,,,0.044608592422725885,0.02072537743720581,0.0010349836802654726,2.1523657437787063,0.6721304170587554,0.3122751878956963,-3.87639636643996,2021-10-21 16:11:20,2021-10-21 16:11:20.019,1.573068111059929,1.3531270877943071,1.30155098816543,1.267841911760657,0.894822625648735,0.5745521727271219,0.4393146450948929,0.5975439697581084,0.8786540859851473,0.6342471545430908,0.447678058771879,0.5020515388800307,1.047566383180847,0.4411026834454447,0.4268946756606615,0.7560921593729382,0.5691704694104618,0.1576539059483326,0.2594565049511789,0.6489987726637486,816.7399267399268,821.5750915750915,797.3992673992674,715.6043956043958,678.5347985347987,-0.49517799999999995,-0.028137,0.874634,3.566437,-5.181426999999999,1.016846,26.0,81.0,-55.0
731.9018404907976,49.780239742834546,,,,,,,32.75300214762345,32.85176535995049,0.06801491264108996,0.04475053939700439,730.7692307692308,57.02307692307691,0.07803157894736841,69.23076923076928,11.65644171779141,60.736196319018404,11.642857142857142,148.4375,,,0.04718617971721925,0.021789029716251844,0.001087658487121624,2.1655934353985646,0.6734834173602304,0.3109925465932528,-3.8263486598719423,2021-10-21 16:11:21,2021-10-21 16:11:21.039,1.430482234539018,1.470388660770093,1.313584711868033,1.188386117389294,0.6412343879207978,0.8923231198416641,0.617654880913315,0.5360433853938246,0.5708146636998996,0.7484887517826009,0.5660253975489977,0.5306628241902508,0.9970161517861188,0.4521012552353169,0.4184276441003204,0.7516139051268964,0.6824471902353553,0.2095074874886709,0.07257643592165379,0.5986961428608919,796.9963369963368,797.8021978021977,814.3223443223442,880.0,765.1648351648352,-0.488831,-0.03009,0.874268,2.781372,-5.510406,2.220612,28.000000000000004,83.0,-55.0
731.5714959886739,50.09752704074626,,,,,,,33.42087999319171,33.52437553297527,0.06847933156969509,0.04568368256068458,730.7692307692308,57.02307692307691,0.07803157894736841,73.0769230769231,12.269938650306747,61.34969325153374,11.642857142857142,148.4375,,,0.049265021745176274,0.02259902080991953,0.001122888389232372,2.1799626700441848,0.6749841527485773,0.3096310602120982,-3.7898487006372488,2021-10-21 16:11:22,2021-10-21 16:11:22.002,1.024663073698129,1.475709556659461,1.219678393771587,0.9694188842228209,0.4721776426965592,0.9908287667824968,0.6364348538475311,0.4469375158019311,0.9052165439552198,0.7081735964257868,0.5343229338259693,0.6975099013660997,0.9152775155586496,0.4506985370933451,0.383206834550358,0.8662054919153405,0.5041877849298884,0.2339466412094019,0.002557439289712562,0.4616796307558308,819.96336996337,805.8608058608058,795.7875457875458,882.8205128205127,911.8315018315021,-0.487183,-0.021544999999999998,0.8831180000000001,4.0000919999999995,-4.957123,1.211243,30.0,88.0,-58.0
731.6186880604057,50.04933014684268,,,,,,,33.47002435760901,33.57377384154277,0.06840903733545743,0.04574790789768013,730.7692307692308,57.02307692307691,0.07803157894736841,73.0769230769231,12.269938650306747,61.96319018404908,11.642857142857142,148.4375,,,0.05243261820879945,0.023836189206855547,0.0011710647327265464,2.199706410860309,0.6770752166059104,0.30780253822195536,-3.7365502982678778,2021-10-21 16:11:23,2021-10-21 16:11:23.010,0.9714313505742159,1.137143164181561,1.4740570922734468,1.2253608121112791,0.7983038530826971,0.8428584837811413,0.7705698302501863,0.7147678796577538,0.8715658178430271,0.8170267825675926,0.6911691128694166,0.7896890009011529,0.8041718272769263,0.4184036352107481,0.3225693627731543,0.7777675712871566,0.4212181678634541,0.1902328907663251,-0.06001176627458747,0.4357938872573663,806.6666666666667,805.8608058608058,813.9194139194141,703.5164835164835,480.2930402930403,-0.364136,-0.016968,0.936707,1.719666,-5.330963,5.420685,28.000000000000004,92.0,-64.0
732.4786324786327,49.55607999530146,,,,,,,33.677641577318,33.77782432962621,0.0676553250811,0.045977643693654674,734.6153846153845,51.320769230769436,0.06986073298429347,69.23076923076928,12.345679012345679,62.34567901234568,11.571428571428573,148.4375,,,0.05507244704388654,0.02485672556100619,0.0012049021067165248,2.2155954093278103,0.6787832022444495,0.3063660447149896,-3.6946269167394505,2021-10-21 16:11:24,2021-10-21 16:11:24.008,1.1845422157244951,1.569117725320908,1.7428450098868409,1.281753178420616,1.019828447365237,1.034123323581248,1.18188428090241,1.0060652443063829,0.9010263252687792,0.8392635647824352,0.7279272028827216,0.93865365056024,0.8443038624437084,0.4167612219866734,0.396551960810045,0.6940232778179907,0.3846944432680671,0.1336539435190833,-0.028776760587449088,0.4959521601425946,795.7875457875458,800.6227106227108,784.5054945054945,816.3369963369963,618.901098901099,-0.334045,0.014403999999999997,0.9520870000000001,5.046844,-6.445007,1.929016,26.0,87.0,-61.0
732.7984898537047,48.9485337918935,,,,,,,33.70383615919718,33.806197032461995,0.06679671761013803,0.04599332098231506,730.7692307692308,57.02307692307691,0.07803157894736841,69.23076923076928,12.269938650306747,62.57668711656443,11.642857142857142,148.4375,,,0.05805602501312256,0.026027767173161145,0.0012395042632747724,2.230541891161057,0.6804240744196304,0.30504877631571903,-3.648591342634485,2021-10-21 16:11:25,2021-10-21 16:11:25.037,1.3966297912504428,1.793203590882531,1.836784373117232,1.2094472198479422,1.0087451092349742,1.064577643879453,1.340152186638823,0.9243346625611236,0.5773698943475702,0.5704344491636977,0.7111630708240313,0.6322445720315968,0.8653460738393634,0.2746081352025843,0.3953030596810397,0.6026799337141127,0.3010966171691651,0.1819244943701164,0.10317339202531099,0.5342450118448765,798.2051282051282,799.8168498168499,809.0842490842491,711.1721611721613,435.1648351648352,-0.43249499999999996,-0.078308,0.902832,1.2261959999999998,-4.9272160000000005,2.347717,24.0,84.0,-60.0
733.7606837606837,48.0135750830941,,,,,,,33.78659573311652,33.89079441126673,0.06543492469099603,0.04604579732993165,734.6153846153845,51.320769230769436,0.06986073298429347,69.23076923076928,12.345679012345679,62.96296296296296,11.571428571428573,148.4375,,,0.06167495956788464,0.027468122538656502,0.0012715328245112695,2.245328543335573,0.6821348475013269,0.3038017975257972,-3.5947291270913655,2021-10-21 16:11:26,2021-10-21 16:11:26.057,1.335738812857902,1.5715852207574368,1.4614190936226619,1.302247718742545,0.951683425950315,0.9758061241835368,0.9799681914554044,0.9699246844357594,0.4178530013622279,0.9429865240847954,0.6271136909293584,0.5074365334344386,0.7930311005780815,1.0128531575661108,0.4872974342109052,0.6983993797798809,0.3034166728622733,0.670745852502873,0.2362747926664995,0.5444488929791208,837.2893772893773,790.1465201465203,804.6520146520148,746.2271062271063,613.6630036630038,-0.519836,-0.079712,0.8762209999999999,3.656158,-2.960815,-17.361145,26.0,80.0,-54.0
734.1405508072176,47.61920756041054,,,,,,,33.759390160033405,33.863876044768986,0.06486388404516175,0.045984914091604906,734.6153846153845,51.32076923076927,0.06986073298429325,69.23076923076928,12.345679012345679,62.34567901234568,11.571428571428573,125.0,,,0.06419138732064825,0.02850101904160535,0.0012825799748721713,2.2522488486093306,0.6830688656912184,0.3032830346935175,-3.557815436500956,2021-10-21 16:11:27,2021-10-21 16:11:27.048,1.335738812857902,1.5170657846085132,1.140723290876292,1.302247718742545,0.951683425950315,0.8600099533450273,1.0185034163070128,0.9699246844357594,0.4178530013622279,0.9433261491440356,0.6478887222055543,0.5074365334344386,0.7930311005780815,0.9030485784049898,0.6071608718729391,0.6983993797798809,0.3034166728622733,0.7265370062921152,0.2306422493683206,0.5444488929791208,808.2783882783882,791.7582417582418,800.2197802197803,798.2051282051282,958.1684981684982,-0.414368,-0.147583,0.9071040000000001,5.973969,-9.383392,7.962799,36.0,77.0,-41.0
734.3779677113013,47.24131227158925,,,,,,,33.699460589375136,33.80338423979816,0.06432833547392147,0.04588844174397001,734.6153846153845,51.32076923076927,0.06986073298429325,69.23076923076928,12.345679012345679,62.34567901234568,11.571428571428573,125.0,,,0.06622194371025893,0.02937505168323418,0.0012784417352392386,2.2543600748132517,0.6835782699205816,0.3032249717149593,-3.527609547090113,2021-10-21 16:11:28,2021-10-21 16:11:28.033,1.235936031084086,0.9894507127068692,1.032116180337527,1.302247718742545,0.2191821104894691,0.3189561299720508,0.6420819954402641,0.9699246844357594,0.5227262911971514,0.3793822641412573,0.5459308419885677,0.5074365334344386,0.6465084400815913,0.7539200787490118,0.5420709582876466,0.6983993797798809,0.5531078797517309,0.6739737415139108,0.25121565072505503,0.5444488929791208,814.7252747252749,785.7142857142858,798.6080586080586,842.1245421245421,815.5311355311355,-0.30658,-0.053405999999999995,0.961182,8.089905,-20.075226,9.316101,46.0,76.0,-30.0
734.0254837187352,47.17062738502072,,,,,,,33.62245856883922,33.72587366370111,0.06426292878285901,0.04580557394070355,730.7692307692308,57.02307692307691,0.07803157894736841,69.23076923076928,12.269938650306747,62.57668711656443,11.642857142857142,125.0,,,0.06815129962698563,0.03026325877965307,0.001267813603923886,2.251948480604669,0.6836845698230792,0.30359689651492544,-3.4978208837682474,2021-10-21 16:11:29,2021-10-21 16:11:29.024,0.9531853889767756,0.6891637364762796,0.8696445879355855,1.227877363052577,0.552940347738615,0.4118273601686768,0.4199948920309811,0.5854026270961312,0.7623129724263441,0.6536361060002344,0.6612755628026907,1.074450030111606,0.7768854807682668,0.4751819967543351,0.3217928502720934,1.014024331616818,0.6650261215817085,0.2057923868134823,-0.08657648759537889,0.7151061336455626,749.4505494505495,815.1282051282053,774.0293040293042,720.0366300366301,797.3992673992674,-0.204041,-0.035217,0.983276,3.8804629999999998,-4.224396,1.413116,55.00000000000001,84.0,-28.999999999999996
