HRV_MeanNN,HRV_SDNN,HRV_SDANN1,HRV_SDNNI1,HRV_SDANN2,HRV_SDNNI2,HRV_SDANN5,HRV_SDNNI5,HRV_RMSSD,HRV_SDSD,HRV_CVNN,HRV_CVSD,HRV_MedianNN,HRV_MadNN,HRV_MCVNN,HRV_IQRNN,HRV_pNN50,HRV_pNN20,HRV_HTI,HRV_TINN,HRV_ULF,HRV_VLF,HRV_LF,HRV_HF,HRV_VHF,HRV_LFHF,HRV_LFn,HRV_HFn,HRV_LnHF,Time,TimeStamp,Delta_TP9,Delta_AF7,Delta_AF8,Delta_TP10,Theta_TP9,Theta_AF7,Theta_AF8,Theta_TP10,Alpha_TP9,Alpha_AF7,Alpha_AF8,Alpha_TP10,Beta_TP9,Beta_AF7,Beta_AF8,Beta_TP10,Gamma_TP9,Gamma_AF7,Gamma_AF8,Gamma_TP10,RAW_TP9,RAW_AF7,RAW_AF8,RAW_TP10,AUX_RIGHT,Accelerometer_X,Accelerometer_Y,Accelerometer_Z,Gyro_X,Gyro_Y,Gyro_Z,Attention,Meditation,A_M
678.3736263736264,46.92393624054486,,,,,,,23.85941275951981,23.92679249430776,0.06917122720614241,0.03517149227493525,684.6153846153846,45.61846153846162,0.06663370786516866,61.53846153846154,4.0,42.285714285714285,10.294117647058824,132.8125,,,0.060648586204993964,0.009456801773634144,0.00040970917001552327,6.413223799835173,0.8600794532998888,0.1341103133375751,-4.6610210319769285,2021-10-21 15:53:00,2021-10-21 15:53:00.040,1.015012492541147,0.6634028508775379,0.8190168385038343,0.9261336931119952,0.5515280942818255,0.38653775200749896,0.2904582961577023,0.5669340550396301,0.7523575752166708,0.6056785826464898,0.5801863177533267,0.7974558789169471,0.998474749346298,0.9749442306713672,0.8264841931821816,0.8796289296487897,0.7580837551404643,0.5706230630394721,0.6449132469650872,0.6614043639318219,793.7728937728937,801.8315018315019,790.5494505494507,853.809523809524,851.7948717948718,-0.71582,-0.057007,0.6972659999999999,2.781372,-5.039368,1.278534,73.0,41.0,32.0
678.9772727272727,47.298797926091176,,,,,,,23.755588389105316,23.8237129920128,0.06966182790788325,0.034987310096088166,684.6153846153846,45.61846153846162,0.06663370786516866,61.53846153846154,3.977272727272727,41.47727272727273,10.352941176470589,132.8125,,,0.061535023478637624,0.00922583074060404,0.0004036128699515631,6.669862607365456,0.8646874767081915,0.1296409727770594,-4.685748039928081,2021-10-21 15:53:01,2021-10-21 15:53:01.000,0.8150476656089124,0.5701598153451604,0.7982145037605117,0.7073729959793382,0.2726565059321803,0.0146451708739583,0.2414957232647737,0.3880970314738538,0.8399374762812268,0.5307002349206028,0.5578915214729229,0.8577463276962906,1.1096903383272645,1.024582673096095,0.8050967488713784,0.9661771099642552,0.8742443657211526,0.4980049214482233,0.7539495807819858,0.8135417111856763,816.3369963369963,795.7875457875458,798.6080586080586,834.0659340659341,740.1831501831501,-0.7268680000000001,-0.06170700000000001,0.700562,3.678589,-4.441223,0.672913,72.0,34.0,38.0
679.020979020979,47.35045540098861,,,,,,,23.748470609652923,23.816452388185,0.06973342041546211,0.034974575666121194,684.6153846153846,45.61846153846162,0.06663370786516866,61.53846153846154,3.977272727272727,41.47727272727273,10.352941176470589,132.8125,,,0.06211567335230433,0.0090715519746181,0.00039801803727566556,6.847303915151665,0.8677161721206107,0.12672377082614,-4.702611918730123,2021-10-21 15:53:02,2021-10-21 15:53:02.000,0.3678477337026873,0.5809015320631034,0.7035015034423983,0.3254763072349103,0.1804317011900363,-0.2656962204735572,0.1169954707869143,0.4090769049055419,0.6990577317456891,0.05905650522647728,0.2903140399367659,0.8757434545587384,1.106823262223557,0.8038049984174845,0.833009054040032,0.9883722708225938,0.9415595905899742,0.5134786813440456,0.7505145895361601,0.8365828727882884,804.2490842490844,819.1575091575091,805.4578754578755,795.3846153846154,784.1025641025641,-0.712708,-0.060608,0.694092,3.74588,-5.15152,1.046753,66.0,30.0,36.0
679.1648351648353,47.960999562533296,,,,,,,24.058126350880464,24.123484409105696,0.07061761310255857,0.035423103649118534,684.6153846153846,45.61846153846162,0.06663370786516866,61.53846153846154,4.0,42.285714285714285,10.294117647058824,132.8125,,,0.062422432906148725,0.009009513104470705,0.0003921180038568668,6.928502371029733,0.8691019334908053,0.12543864271805638,-4.709474248281486,2021-10-21 15:53:03,2021-10-21 15:53:03.005,0.6947190556009005,0.9384901524796764,0.7026932220441654,1.140699140305987,0.4454314245360745,0.2960577581225786,0.1732860602838315,0.4596471252949416,0.6872537868071761,0.2104142985713144,0.386347665022223,0.8990876510087945,0.9317006814473628,0.7322217818107613,0.7659383868217015,0.9525783682143492,0.7396307349648851,0.5347924329973993,0.6553591722746597,0.6493682931848731,792.9670329670329,815.5311355311355,815.5311355311355,756.7032967032968,666.4468864468864,-0.71283,-0.06170700000000001,0.69342,3.297272,-4.433746,1.181335,60.0,30.0,30.0
679.6483516483516,48.67151081147916,,,,,,,24.00151891631896,24.062783165697518,0.07161278430740854,0.03531461359114321,684.6153846153846,45.61846153846162,0.06663370786516866,61.53846153846154,4.0,41.714285714285715,10.294117647058824,132.8125,,,0.06238775462140338,0.00907943926002772,0.00038848047221944185,6.871322428034273,0.8682369928692186,0.12635660776547214,-4.70174284377944,2021-10-21 15:53:04,2021-10-21 15:53:04.001,0.8834659375425978,0.8789578613382456,0.8334532682835342,1.180002166144114,0.2678100763737485,0.3532117555273631,0.26413619008413103,0.1533540125500258,0.5512360884784381,0.1245834962139672,0.3681277450326529,0.7939829141466704,1.043921842677917,0.7995901149291089,0.8892039454344468,1.034730002540965,0.724086623457187,0.5714493340851059,0.7607766987122002,0.6335431517991215,783.2967032967032,794.1758241758242,806.2637362637363,828.4249084249085,782.4908424908424,-0.719299,-0.054015999999999995,0.686829,3.162689,-3.656158,0.568237,53.0,24.0,29.0
680.4835164835166,48.89275460199004,,,,,,,24.08638017899711,24.151824557606602,0.07185002048932712,0.03539597888199626,684.6153846153846,45.61846153846162,0.06663370786516866,61.53846153846154,3.428571428571429,42.285714285714285,10.9375,132.8125,,,0.0620521247493325,0.009320574262748096,0.00038594144126097995,6.657543086946763,0.864733840514713,0.12988783237620646,-4.675531036008146,2021-10-21 15:53:05,2021-10-21 15:53:05.020,0.8059658060870649,0.9086477393875668,0.7802303043801081,0.8295863945398865,0.327320963647725,0.015808955315353382,0.4098927101570804,0.2626940583362428,0.6516538036101359,0.2724550094546147,0.2501342902785429,0.6328080510774002,1.007375944644221,0.6381300905359931,0.8055271805160876,0.8974374155450655,0.8052406547413523,0.5734127618014753,0.7343560665655937,0.7083026489893798,800.6227106227108,810.2930402930403,813.9194139194141,803.8461538461539,763.956043956044,-0.719543,-0.060547000000000004,0.699585,3.573914,-5.166473000000001,0.770111,41.0,25.0,16.0
681.0109890109892,48.851243296254594,,,,,,,24.08638017899711,24.14791754902494,0.07173341412184805,0.03536856316221418,684.6153846153846,45.61846153846162,0.06663370786516866,61.53846153846154,3.428571428571429,42.285714285714285,10.9375,132.8125,,,0.061591891466683875,0.009633895590048009,0.0003855709070926446,6.393248804804304,0.8600855118233881,0.13453027374393184,-4.642467608486147,2021-10-21 15:53:06,2021-10-21 15:53:06.034,0.3565344296773117,0.9365032895895314,0.8958455478703827,0.6745481042188886,0.30264425827797303,0.1261640260870152,0.1832051299885201,0.2688760838564152,0.7014819077049234,0.4246941333021313,0.1866388572917832,0.7359357501086945,0.9467082101216592,0.8987189750947656,0.839465419138087,0.9375999831224512,0.8478770828847643,0.3899287531635743,0.692026677265261,0.7048125258351572,783.2967032967032,794.1758241758242,785.3113553113553,805.4578754578755,620.9157509157509,-0.714417,-0.067993,0.6908569999999999,3.259888,-5.480499,0.732727,37.0,25.0,12.0
682.1538461538461,48.475641078839686,,,,,,,24.08638017899711,24.151824557606602,0.0710626222400672,0.035309307885313765,684.6153846153846,45.61846153846162,0.06663370786516866,61.53846153846154,3.428571428571429,42.285714285714285,10.9375,132.8125,,,0.060983152673518726,0.010047461084078555,0.0003868042926807272,6.069508720979679,0.853897471210545,0.1406864229816474,-4.60043530484289,2021-10-21 15:53:07,2021-10-21 15:53:07.009,0.1887563980180806,0.8307208004858962,1.116386026403295,0.530825913935815,0.1984904526826811,0.2804496307098628,0.3552314376928053,0.1357183560360249,0.7142232488343473,0.2007252204060762,0.3491419320309336,0.8382948725557002,0.8771858861955569,1.000501627871532,0.9800310097007192,0.8352136055644426,0.8477374610486059,0.5728185255418831,0.6710114925694405,0.7242962181607562,785.7142857142858,790.952380952381,796.9963369963368,753.0769230769231,794.1758241758242,-0.7128909999999999,-0.065552,0.689148,3.708496,-4.5159910000000005,1.128998,37.0,25.0,12.0
682.8470380194517,48.250879941813146,,,,,,,24.17004891376145,24.23610672762064,0.07066133007146275,0.0353959929062077,684.6153846153846,45.61846153846162,0.06663370786516866,61.53846153846154,3.4482758620689653,42.5287356321839,10.875,132.8125,,,0.06006607332525497,0.010691762017685194,0.00039122311094473935,5.61797702061643,0.8442286465981368,0.1502727126686439,-4.538281738932489,2021-10-21 15:53:08,2021-10-21 15:53:08.000,0.676536511724254,0.8248005199714115,0.8923752741819032,0.6487505087839137,0.2865009765644828,0.1943318906733471,0.6138035681796185,0.1932999894508234,0.7783616197101596,0.325698094322034,0.4047391662109464,0.7903029623738851,1.068720503544698,0.9154978555136376,1.0120119780798749,0.9796500143505856,1.027164106682384,0.6631322674886935,0.8347781309996309,0.972321995344356,803.4432234432236,794.981684981685,805.054945054945,831.2454212454213,743.0036630036632,-0.7208859999999999,-0.055847,0.684631,3.4393309999999997,-4.867401,0.8374020000000001,35.0,23.0,12.0
683.3406593406594,47.847620406029044,,,,,,,24.100494671962924,24.165982168617333,0.07002015722611353,0.035268638478525426,684.6153846153846,45.61846153846162,0.06663370786516866,61.53846153846154,3.428571428571429,42.285714285714285,10.9375,132.8125,,,0.059315700574229385,0.011304190220791457,0.00039773572037872317,5.247231284655118,0.8352250488316063,0.15917443000351805,-4.4825818059998594,2021-10-21 15:53:09,2021-10-21 15:53:09.066,1.199040664462727,0.7968887209412547,0.7424203904926847,0.6148967019210649,0.2350365268568794,0.3968165154895291,0.1960704205038694,-0.17107891247852602,0.7526693909159009,0.46074889124737,0.3627677762360473,0.5661363857438001,1.326373634262012,0.9003157524754924,1.031126479024389,1.1225455998208649,1.007855578502693,0.6986911637106663,0.7131637275574301,0.9100886932039296,795.7875457875458,800.2197802197803,813.5164835164835,787.3260073260074,617.2893772893772,-0.7128909999999999,-0.06475800000000001,0.694641,3.588867,-5.00946,1.59256,38.0,17.0,21.0
684.1732979664014,47.567735900528625,,,,,,,24.14173015897116,24.209179536166054,0.06952585849508641,0.03528598708942411,684.6153846153846,45.61846153846162,0.06663370786516866,61.53846153846154,3.4482758620689653,42.5287356321839,10.875,164.0625,,,0.058476390914227926,0.011963555258931134,0.000406278563196689,4.887877361587278,0.8253988286862084,0.16886651763663935,-4.425890312180943,2021-10-21 15:53:10,2021-10-21 15:53:10.038,0.6916606865482224,0.8832972729636378,0.8599680027964319,0.5990173183789057,0.4096541393145265,0.3827751024425358,0.3289350097214282,0.1442487045065227,0.8021704701802526,0.38067233101352704,0.339798169028392,0.6992362802328693,1.160873808410128,0.8901319014604099,0.9707010044430612,1.067415702817822,0.8780196985714395,0.6720429685892656,0.6495334560815297,0.7920337562980184,799.0109890109891,804.2490842490844,819.96336996337,847.3626373626372,705.934065934066,-0.7146,-0.064209,0.692261,3.902893,-4.433746,0.964508,38.0,20.0,18.0
684.5269672855882,47.51216358480392,,,,,,,24.14173015897116,24.209179536166054,0.06940875357067065,0.03526775614801909,684.6153846153846,45.618461538461546,0.06663370786516855,61.53846153846154,3.4482758620689653,42.5287356321839,10.875,164.0625,,,0.05675742417295094,0.012686075206011223,0.00041553182358446605,4.47399398563054,0.812456502701714,0.1815953497727402,-4.367250327519738,2021-10-21 15:53:11,2021-10-21 15:53:11.015,0.2891573328645739,0.5888662240384571,0.9114129270547904,0.5307425690302967,0.3026213164527168,0.019873789624785167,0.2457489356201781,0.2520000711672163,0.8833710796389466,0.216534053056347,0.4084586559553814,0.7640320610279014,0.9984066136161764,0.7982406756658026,0.7522677705607157,0.929802917514833,0.8964254043975126,0.6060026778032954,0.6649015335513514,0.9572181833572222,786.9230769230769,793.3699633699632,807.4725274725273,848.974358974359,895.7142857142858,-0.732422,-0.054321,0.704285,3.8804629999999998,-4.553375,0.201874,35.0,26.0,9.0
684.9690539345712,47.308920240972974,,,,,,,24.198334527786518,24.26841269549255,0.06906723737258351,0.03532763179414812,684.6153846153846,45.61846153846145,0.06663370786516842,59.615384615384635,3.4482758620689653,43.103448275862064,10.235294117647056,132.8125,,,0.055364040372547205,0.01323725705056421,0.00042452735931278245,4.182440528356094,0.8020772014975526,0.1917725299522211,-4.324719921343773,2021-10-21 15:53:12,2021-10-21 15:53:12.022,0.349494181575225,0.5090075448477921,0.8265026616256838,0.498229435120245,0.3409644343910676,0.1203776844720984,-0.03293171538190513,0.3360900188730145,0.761915492788659,0.3239426022212119,0.4747018822064837,0.7566720038607638,0.8672252307495195,0.7425703897188645,0.8354964113738368,0.8370927152839295,1.00620194713606,0.6215506608022332,0.6454591895449471,0.9691494412003936,806.2637362637363,812.7106227106227,807.8754578754579,793.3699633699632,855.0183150183151,-0.7169800000000001,-0.061523,0.692444,3.977661,-5.286102,0.979462,35.0,26.0,9.0
684.0879120879122,48.73136237295709,,,,,,,27.03966168589395,27.10015065665945,0.07123552618291934,0.039526588919494135,684.6153846153846,45.61846153846145,0.06663370786516842,61.53846153846154,4.0,43.42857142857143,10.294117647058824,218.75,,,0.05401506350475816,0.01373843464375897,0.0004347610778234043,3.931675253067922,0.7921460984282263,0.2014780080857664,-4.287557925624319,2021-10-21 15:53:13,2021-10-21 15:53:13.012,0.491052370640692,0.5159184823847179,0.694852923886103,0.5034296840418196,0.1539103200261759,-0.3162305194768183,-0.1789928885515039,0.4173995790153777,0.3842640423204964,0.2566041014609506,0.2741614725770744,0.5964694169218367,1.14816202862334,0.8489932911057095,0.962780651391956,0.9806236261553688,1.042588230017076,0.6583212201182475,0.7404654415918959,1.014418088667751,790.5494505494507,800.6227106227108,789.3406593406594,814.3223443223442,726.4835164835165,-0.718445,-0.05841100000000001,0.697754,3.9851379999999996,-4.329071,0.254211,22.0,53.0,-31.0
684.7922192749779,47.353275244647286,,,,,,,24.14881296098917,24.21887020536,0.06914984415971087,0.035264438294226916,684.6153846153846,45.61846153846145,0.06663370786516842,59.615384615384635,3.4482758620689653,43.103448275862064,10.235294117647056,164.0625,,,0.052466348337497935,0.014257380867162547,0.00044936437372198847,3.6799429591123505,0.7810619630950354,0.2122483885683483,-4.25048055076982,2021-10-21 15:53:14,2021-10-21 15:53:14.014,0.7739928746269512,0.6186451708626088,0.7208178066373869,0.8573952702150209,0.1973288599095106,-0.2671179279734481,0.09342890831340556,0.4430545604782474,0.5477050154877363,0.2661039019525802,0.2471370013710702,0.6306779201694994,1.1588054726373271,0.8778468875540721,0.7913041697559328,1.116362320813074,0.99602135579831,0.6231494340286879,0.8368865376027003,0.9781480987907092,799.4139194139194,807.8754578754579,807.0695970695973,767.5824175824176,548.7912087912088,-0.718689,-0.049011,0.700806,3.6711120000000004,-4.777679,0.807495,22.0,53.0,-31.0
684.8364279398762,47.327801117025565,,,,,,,24.03523766732221,24.103975064612627,0.06910818289762563,0.035096318897090466,684.6153846153846,45.61846153846145,0.06663370786516842,53.84615384615381,3.4482758620689653,42.5287356321839,10.235294117647056,164.0625,,,0.051451778519503485,0.014578662791782703,0.00046256198075420886,3.5292522540890654,0.7737923687026866,0.21925108011368544,-4.228196271848966,2021-10-21 15:53:15,2021-10-21 15:53:15.035,0.8495333656085123,0.4687822916078067,0.6650199582086265,0.9310371650474036,0.2688530510536368,-0.1883999661732393,0.07456831472823952,0.3104320605608838,0.7039051747623088,0.3322382456344384,0.1655458206534134,0.8198212116998108,1.107293609371588,0.7104023363046347,0.8250332477831628,1.1670424070897272,1.0116769538945092,0.7131773055586546,0.7677170313476048,0.9796390442574432,798.6080586080586,791.3553113553114,788.1318681318681,732.5274725274727,514.9450549450548,-0.721985,-0.062012,0.692383,3.461761,-4.194489,0.695343,19.0,83.0,-64.0
685.1900972590628,46.94748483424046,,,,,,,24.04235184171725,24.111481328898826,0.06851745963936509,0.03508858627393021,684.6153846153846,45.61846153846145,0.06663370786516842,53.84615384615381,3.4482758620689653,42.5287356321839,10.235294117647056,164.0625,,,0.050766096133465936,0.014828154697257585,0.0004773806168339447,3.4236287097041784,0.7683493660022627,0.22442543603644816,-4.211227560968359,2021-10-21 15:53:16,2021-10-21 15:53:16.006,0.6377309587106234,0.3593075236242368,0.6505770324595772,0.8033248640578307,0.2785077914932658,-0.1242826686648602,0.06868650342852782,0.3635394351792866,0.7689806971415264,0.2252413757674797,0.2142058835560402,0.7327217660115274,1.082630312220125,0.7132701893760246,0.7665098833877813,1.033105345187156,0.986018555281712,0.6967867108622908,0.8651352790492335,0.9110698852720704,841.7216117216118,817.5457875457878,837.2893772893773,786.5201465201468,993.6263736263736,-0.715332,-0.056519000000000014,0.693542,3.611298,-5.256195,0.717773,19.0,83.0,-64.0
685.9493108048023,46.47620611580253,,,,,,,24.21891125926773,24.2875942317236,0.06775457804786407,0.03530714424197389,684.6153846153846,34.21384615384618,0.049975280898876435,53.84615384615381,3.4682080924855487,43.352601156069355,10.176470588235292,164.0625,,,0.05055309988071596,0.01507329758520362,0.0004996462958111804,3.3538182069954177,0.7644960594175552,0.22794797220164284,-4.194830472417325,2021-10-21 15:53:17,2021-10-21 15:53:17.081,0.4202151726968268,0.8997155273971421,1.048443448974554,0.7315129556760382,0.09665359837547352,-0.02412646246221277,0.3156724202280817,0.3196956729307428,0.5795967363225502,0.1433746592981059,0.5622547318254182,0.3626221623225423,1.174823640670584,0.8612752551127442,0.7017859767728176,0.9428126090749396,0.9313397475395584,0.5794019619212513,0.7394881196705131,0.8689345657046241,805.4578754578755,799.4139194139194,813.5164835164835,805.4578754578755,855.8241758241759,-0.71759,-0.060729999999999985,0.698853,3.925323,-4.216919,0.127106,22.0,94.0,-72.0
686.3837312113175,46.097507476438366,,,,,,,24.14881296098917,24.21394323109675,0.06715996516276154,0.035182670950507214,684.6153846153846,34.21384615384618,0.049975280898876435,53.84615384615381,3.4482758620689653,43.103448275862064,9.666666666666666,132.8125,,,0.05098293855359171,0.015239080923504797,0.0005212574774183106,3.345538934369428,0.7638662780722665,0.22832383453228025,-4.1838920373988095,2021-10-21 15:53:18,2021-10-21 15:53:18.049,0.6326188253334873,0.8589651519981956,1.0129136031209351,0.6476600171855197,0.3198529325511177,0.006030891103401906,0.3117064250070564,0.3398228184034588,0.7600583349557085,0.1991695582330685,0.6141032874518265,0.6306287231753771,1.0851478912843,0.842114511259602,0.7939031693771453,1.0043771766555551,1.1986919582797089,0.6578816100149548,0.7805270488703433,1.128968092972448,817.948717948718,825.2014652014653,803.8461538461539,754.2857142857142,621.3186813186812,-0.722839,-0.062988,0.697205,3.9926150000000002,-4.815062999999999,0.91217,27.0,87.0,-60.0
687.2832369942198,45.51280655555305,,,,,,,24.211807897548947,24.278356577426795,0.06622132492944219,0.03522828230677853,684.6153846153846,34.21384615384618,0.049975280898876435,53.84615384615381,3.4682080924855487,43.352601156069355,9.105263157894736,132.8125,,,0.051971031268397236,0.015389907549051538,0.0005462074722689394,3.3769553912362618,0.7653249195109606,0.2266316343701492,-4.174043338358518,2021-10-21 15:53:19,2021-10-21 15:53:19.000,0.5267268098993109,0.5187147357923662,0.6133795244801981,0.5884153836172629,0.1724003112338485,-0.05114990139962828,-0.1587659875048774,0.1948150960374869,0.5515607089951599,0.1689213726331801,0.1643316587103929,0.6409540903456388,1.172665498280067,0.9694654144321128,0.8133990956595525,1.0427430023605408,1.086327428171249,0.7010460457062733,0.7865016565938107,1.0095204141338479,791.7582417582418,791.7582417582418,790.1465201465203,846.959706959707,908.6080586080586,-0.716003,-0.059387,0.6908569999999999,3.887939,-4.897308,0.897217,35.0,79.0,-44.0
687.5773651635723,45.063454136726676,,,,,,,24.14173015897116,24.21032947938182,0.06553946714928036,0.03511129275354771,684.6153846153846,34.21384615384618,0.049975280898876435,53.84615384615381,3.4482758620689653,43.103448275862064,9.157894736842103,132.8125,,,0.05347832356821797,0.015525153739295243,0.0005740454854268812,3.444624411857553,0.7686149408820908,0.22313461468723852,-4.165293748519502,2021-10-21 15:53:20,2021-10-21 15:53:20.048,0.4935285237695395,0.4772405907094898,0.5657292680682222,0.4213043851796678,0.08592393528402974,-0.1599431029503252,-0.117948658339032,-0.1548403663137353,0.5926004826278171,0.029081514541700368,0.2420556960237419,0.5457262007402945,1.163815747393319,0.8191448682455872,0.8838773030150364,1.086951765920179,0.9387006555858576,0.4979444995427803,0.83210489519952,0.887159416768466,785.3113553113553,803.040293040293,798.2051282051282,806.6666666666667,738.5714285714287,-0.722168,-0.052185,0.703796,4.149628,-5.0617980000000005,1.1589049999999999,35.0,79.0,-44.0
688.0391285015562,44.940553381946344,,,,,,,24.097869345738143,24.168061752965077,0.06531685702209986,0.035023980973610626,684.6153846153846,34.21384615384618,0.049975280898876435,53.84615384615381,3.4682080924855487,42.774566473988436,9.105263157894736,132.8125,,,0.055987360839890525,0.015674095477904482,0.0006119187857387015,3.571967576618058,0.7746609420092394,0.21687233307495168,-4.155745898887021,2021-10-21 15:53:21,2021-10-21 15:53:21.000,0.6937318809150876,0.5355750425866705,0.6403860776793442,0.5686301516796066,0.2000771684659623,-0.2277649675507718,0.099056088182566,0.2901681214494933,0.5700892859112191,-0.004980418146983855,0.2150777368423795,0.509405355983758,1.219302270265147,0.8684350609880654,1.03878981716904,1.20762596691051,1.025405669765601,0.763949446530556,0.9789456519283404,0.9763696681718248,737.3626373626372,797.8021978021977,811.5018315018315,734.945054945055,1052.051282051282,-0.725708,-0.053345000000000004,0.694763,3.476715,-4.807587,1.315918,39.0,72.0,-33.0
687.709991158267,44.97470750585781,,,,,,,24.12046927403766,24.190444195140103,0.06539778116369914,0.03507360600274697,684.6153846153846,34.21384615384618,0.049975280898876435,53.84615384615381,3.4482758620689653,43.103448275862064,9.157894736842103,132.8125,,,0.05842835586776227,0.01579260255379243,0.0006439237859040447,3.6997293934767774,0.7804507820616204,0.2109480718880904,-4.1482136413836335,2021-10-21 15:53:22,2021-10-21 15:53:22.060,0.8531154754598589,0.6435246170840444,0.6681187402388193,0.7376627892194986,0.2256300705752281,0.1832009646549039,-0.1471673666685868,0.5229661653759602,0.2341646776431696,0.3614331036633895,0.1812059189164722,0.5010427004965025,1.1895644809557848,1.043369296987738,0.8702591478241339,1.230166382471569,1.1107948624412,0.9876674895734594,0.9173223959380448,1.106134772382109,803.040293040293,802.6373626373628,818.3516483516484,837.2893772893773,1054.468864468864,-0.71283,-0.06311,0.701782,4.149628,-5.4954529999999995,0.762634,56.00000000000001,70.0,-13.999999999999993
687.9057358826144,45.03086269767631,,,,,,,24.18337358603895,24.253816229853282,0.06546080421890894,0.035155068964515285,684.6153846153846,34.21384615384618,0.049975280898876435,53.84615384615381,3.4682080924855487,43.352601156069355,9.105263157894736,132.8125,,,0.061508312263703874,0.015865571103358258,0.0006810436619369722,3.876841990937497,0.788013192823205,0.20326162238885773,-4.143603856904475,2021-10-21 15:53:23,2021-10-21 15:53:23.000,0.5319498789448366,0.8227589539543321,0.3835078020487013,0.5498965462919567,-0.0632711303288707,0.1336830432561956,-0.0129453840918115,0.1301142755894452,0.4690997589400758,0.4343002647238635,0.2883622574733413,0.5343050315397929,1.251236051447937,0.8400130850546059,0.6748964294203855,1.1101320402545678,1.100430337196209,0.8566662698056877,0.8196067449745026,1.087545814535788,797.3992673992674,796.5934065934067,790.952380952381,732.9304029304027,655.1648351648353,-0.71814,-0.053894000000000004,0.696106,3.753357,-4.545898,0.814972,56.99999999999999,69.0,-12.000000000000007
688.2614495331259,44.71186959300653,,,,,,,24.06215290496483,24.12903096310183,0.06496349551952432,0.034960773876391175,684.6153846153846,34.21384615384618,0.049975280898876435,53.84615384615381,3.4682080924855487,42.196531791907525,9.105263157894736,132.8125,,,0.06389125840621404,0.01589504647666485,0.0007072446073797008,4.019570405158069,0.7937438317830204,0.19746981686512016,-4.141747760643473,2021-10-21 15:53:24,2021-10-21 15:53:24.036,0.3771651752456867,0.9730239737635104,0.7775942708942992,0.4756051040446668,0.1205397715416623,0.3201385506861899,0.4083638452477842,0.1831916385877909,0.4804494609007698,0.4572255718539249,0.3790105958573723,0.5944552575170047,1.1272046621253502,0.8788852273216141,0.7571265640460082,1.018903781582151,1.11336959301585,0.7736302987567414,0.8295544408275668,1.066430239865183,799.8168498168499,805.4578754578755,808.2783882783882,814.7252747252749,753.4798534798535,-0.721619,-0.058227999999999995,0.701721,3.9701839999999997,-5.166473000000001,0.8374020000000001,56.99999999999999,69.0,-12.000000000000007
688.5726989773233,44.27921385594082,,,,,,,24.083589125612537,24.151240844566175,0.06430579359551268,0.0349761022494528,684.6153846153846,34.21384615384618,0.049975280898876435,53.84615384615381,3.4682080924855487,42.196531791907525,9.105263157894736,132.8125,,,0.06665268246561339,0.016061534532458108,0.0007355774126229572,4.149832777865506,0.7987159577360392,0.19246943202055092,-4.131328025061871,2021-10-21 15:53:25,2021-10-21 15:53:25.008,0.4400159613500209,0.5386971483714097,0.7475086044118389,0.4873969014664078,0.4322968781027096,-0.06856202700171711,0.2243244025716491,0.2812618198819605,0.4728287566267502,0.2374934210088969,0.2294929563815063,0.5383735241453972,1.03086303243649,0.9034837189539192,0.7689987750014778,0.9553220971226452,1.063522981294975,0.5912203702908294,0.9840935090182048,0.9784376801329924,787.7289377289377,795.3846153846154,788.5347985347986,749.8534798534797,720.4395604395604,-0.7205199999999999,-0.06957999999999999,0.705933,4.568329,-4.934692,0.672913,59.0,74.0,-15.0
689.3285904846599,43.04149779273622,,,,,,,24.140659322046215,24.20698805621459,0.062439739750928064,0.0350205397763542,684.6153846153846,34.21384615384618,0.049975280898876435,53.84615384615381,3.4682080924855487,42.774566473988436,9.105263157894736,125.0,,,0.07057870107103527,0.016496915725839324,0.0007734823622459401,4.27829675825324,0.8034083644181315,0.18778696519082755,-4.104581841255097,2021-10-21 15:53:26,2021-10-21 15:53:26.033,0.5939348186743768,0.6490527006840676,0.8889440226131591,0.7892800778382071,0.4083550011132291,0.2515825643938393,0.2480031873157088,0.3578596018218965,0.6792777659299689,0.2842892511424793,0.5968642185847983,0.692809045807848,1.0937001328348248,0.8001101127818127,0.7242233880445601,1.037915185665285,1.041392733779621,0.657690188069525,0.8772616151130418,1.027619688843066,795.7875457875458,803.4432234432236,828.021978021978,738.1684981684982,634.6153846153846,-0.710205,-0.060486,0.6952510000000001,4.0000919999999995,-4.9496459999999995,0.971985,55.00000000000001,77.0,-21.999999999999996
690.5187835420394,41.85521617697973,,,,,,,24.3536466934656,24.41916913716365,0.060614160214848875,0.035268623061262355,688.4615384615386,39.91615384615382,0.057978770949720634,53.84615384615381,3.4883720930232562,43.6046511627907,9.052631578947368,117.1875,,,0.07400929245907838,0.017053891737791205,0.0008054779571893129,4.3397304027135775,0.8055988921986118,0.18563339595816394,-4.071376846882782,2021-10-21 15:53:27,2021-10-21 15:53:27.038,0.8843313948173311,0.3181220791678292,1.008499710359837,1.1511114920488072,0.5615137595909044,0.3555728441616463,0.3334898407482808,0.5776511431886641,0.8982263273982205,0.4751931711780349,0.7551874997484532,1.009828468996838,1.1840908683165559,0.8676169363900329,0.8734654510922499,1.144013136636431,0.9332619574010806,0.6794322539943655,0.8087998206829301,0.8987781860852829,797.8021978021977,810.6959706959708,799.4139194139194,834.0659340659341,880.0,-0.719238,-0.055725,0.691711,4.149628,-4.762726,0.53833,46.0,79.0,-33.0
691.4184081814142,41.431352752987756,,,,,,,23.687509678422884,23.755611859825816,0.05992225874049481,0.0342592985638412,692.3076923076923,45.61846153846145,0.06589333333333322,53.84615384615381,2.8901734104046244,43.352601156069355,9.105263157894736,117.1875,,,0.076664862745731,0.017605229108349725,0.0008275621392915379,4.354664303083154,0.8061698635707047,0.1851279013631262,-4.039559312637039,2021-10-21 15:53:28,2021-10-21 15:53:28.001,0.8396744403233045,0.6545454214882339,1.02248729475766,1.1448140231670478,0.4649846749921601,0.3194673735379462,0.47215718955376096,0.6005650222811105,0.8671976031243269,0.4045483390727364,0.7278307004625458,0.9930590858161842,1.2863528945581841,0.9033854188003154,0.9662502907978,1.2618731648882682,0.8791734984642622,0.5536650561390303,0.8150654518214752,0.8253950597827672,802.2344322344322,815.934065934066,809.4871794871796,757.1062271062273,805.054945054945,-0.72168,-0.054810000000000005,0.697449,3.8804629999999998,-5.158997,1.345825,43.0,73.0,-30.0
691.8604651162791,41.59281778938539,,,,,,,23.691034077854248,23.756327712778425,0.060117350082136874,0.03424250303689857,692.3076923076923,45.61846153846145,0.06589333333333322,61.53846153846154,2.9069767441860463,43.0232558139535,9.052631578947368,117.1875,,,0.07709836958615866,0.017913583913762354,0.0008228651292367394,4.30390534676463,0.8044922575008816,0.1869214568358576,-4.02219597607382,2021-10-21 15:53:29,2021-10-21 15:53:29.053,0.5693320638732713,1.074417649760674,0.8924188551602688,0.7731491992380352,0.3380216431856418,0.5591077276048196,0.1912920022789464,0.05754318787626475,0.522736077107066,0.3800278352973107,0.1362838374159559,0.38410861789484396,1.386324606449436,0.9372775752591728,0.9845949754951452,1.310413502954634,0.8887409378528294,0.6620338773942342,0.796387363464204,0.8392724902667332,807.0695970695973,789.7435897435898,819.1575091575091,823.5897435897436,649.5238095238095,-0.721436,-0.062012,0.6938479999999999,3.4019470000000003,-3.783264,0.897217,35.0,66.0,-31.0
692.1298354824366,41.390727790965464,,,,,,,23.57103689068069,23.63981503136074,0.05980197019265149,0.03405580236871443,692.3076923076923,45.61846153846145,0.06589333333333322,61.53846153846154,2.8901734104046244,43.352601156069355,9.105263157894736,117.1875,,,0.0772107563148466,0.01833768057096944,0.0008166165481205045,4.2104973972051685,0.8012319151338276,0.1902938868138636,-3.998797288473888,2021-10-21 15:53:30,2021-10-21 15:53:30.020,0.7451107971586874,0.9604791360271836,0.8232478896337424,0.557627218410231,0.6581837242069092,0.4513671774812107,0.25619909665594703,0.4660872071509266,0.7589359510436516,0.3661490230166337,0.09611747875910256,0.8505537837312992,0.9718107886267416,1.0231607196202808,0.9700357905348278,0.8884482247577423,0.7732646200619985,0.5913284262677333,0.8039248768605348,0.7394695728003231,778.8644688644687,781.2820512820513,794.1758241758242,716.007326007326,1078.241758241758,-0.720154,-0.04657,0.696838,3.5440059999999995,-4.61319,0.957031,35.0,56.00000000000001,-21.000000000000007
692.128801431127,41.5115746472954,,,,,,,23.58857005823577,23.65715815939011,0.059976661224704374,0.034081185480883416,692.3076923076923,45.61846153846145,0.06589333333333322,61.53846153846154,2.9069767441860463,43.0232558139535,9.555555555555557,148.4375,,,0.07713607103540282,0.018912233828863787,0.0008085899952610989,4.0786335307296175,0.7963921530550185,0.19525955128225356,-3.9679462737875175,2021-10-21 15:53:31,2021-10-21 15:53:31.014,1.019972720008967,0.33832660410064896,0.7273821399421831,1.007626203526883,0.7159270327311639,-0.1417490609068936,0.3149919075986167,0.6392427016345283,0.8496635674815325,0.3254618441230626,0.3778188386663673,0.9057899729837988,1.076116345170673,0.8128869034531966,0.8369167863942663,1.034870831815508,0.8038352873281988,0.5614310911006904,0.7483101385002591,0.8848890957332612,803.040293040293,814.3223443223442,811.5018315018315,838.0952380952382,788.1318681318681,-0.715942,-0.060791,0.6918949999999999,4.007568,-5.091705,0.9495540000000001,35.0,55.00000000000001,-20.000000000000007
691.9051878354204,41.280119441506415,,,,,,,23.58857005823577,23.656297733265546,0.059661526127081865,0.034092200019530214,692.3076923076923,45.61846153846145,0.06589333333333322,55.76923076923072,2.9069767441860463,43.0232558139535,9.555555555555557,164.0625,,,0.0768186813919879,0.01982459241587681,0.0007974966723719978,3.874918574894208,0.7883628281404912,0.20345274691662774,-3.920832070770836,2021-10-21 15:53:32,2021-10-21 15:53:32.001,0.8524325265430523,0.5607225595491285,0.8260834124214099,0.9133978688533236,0.6163103827629028,0.117825845118111,0.008230654839099712,0.4029068878419332,0.7029589070664719,0.3395574448252525,0.526910533188519,0.7749472747252596,1.253828631263235,0.8463647546770208,0.8103273085429102,1.110351962517577,0.9650472763069924,0.789640591776977,0.804591228552759,0.9957347887510368,796.1904761904763,792.5641025641023,802.2344322344322,846.5567765567764,744.2124542124542,-0.72113,-0.047241000000000005,0.708374,3.476715,-3.955231,1.465454,33.0,57.99999999999999,-24.999999999999996
691.8630502445533,40.96260702797096,,,,,,,23.431973512465127,23.500388179260717,0.0592062359935133,0.033867936008697995,692.3076923076923,45.61846153846145,0.06589333333333322,53.84615384615381,2.8901734104046244,42.196531791907525,9.611111111111109,164.0625,,,0.07642329423166283,0.02068359372535247,0.0007890590865523465,3.6948750418544822,0.7806584086433259,0.2112814100071726,-3.8784144666178393,2021-10-21 15:53:33,2021-10-21 15:53:33.051,0.5895350265456031,0.5732676582397371,0.782970221685727,0.8191578460624017,0.3491212547992245,0.09430463284916303,-0.2310672557096873,0.4281777397019901,0.8712282522192091,0.4501287478049531,0.4324277623784245,0.6938788402514872,1.2281623591048678,0.8218481710495359,0.832596072515412,1.0969093113000958,0.9880032497360304,0.7185197177540955,0.7864072618100567,0.8250038873150533,830.8424908424909,790.952380952381,794.981684981685,841.7216117216118,626.1538461538463,-0.720581,-0.059448,0.700684,4.269257,-5.218811,0.859833,34.0,65.0,-31.0
691.5921288014313,40.94337073171461,,,,,,,23.456172922447443,23.524887460598176,0.059201614689675275,0.03391619416360093,692.3076923076923,39.91615384615382,0.05765666666666664,53.84615384615381,2.9069767441860463,41.860465116279066,9.555555555555557,164.0625,,,0.07593821061323468,0.021897443332126117,0.0007820339809708558,3.4679030543179628,0.7700262722642741,0.2220437711790984,-3.8213853917999474,2021-10-21 15:53:34,2021-10-21 15:53:34.062,0.6300247483291648,0.4507672933126812,0.5321577599866352,0.8228213313812061,0.4163883217128905,0.276359803320354,0.1604737897535055,0.08652097551464694,0.8463012809937552,0.4589339014829789,0.2588031574843019,0.4779717445085818,1.2626470663743379,0.8739101986696373,0.7293940651688551,1.066917545904411,0.9000140671381929,0.7053201889134284,0.8392273575799428,0.7958588474996697,801.4285714285713,822.7838827838829,820.3663003663004,807.0695970695973,1085.0915750915754,-0.719666,-0.059082,0.7026979999999999,3.917847,-3.6187739999999997,1.6748049999999999,26.0,76.0,-50.0
691.5474060822899,40.9383339199155,,,,,,,23.49302474866189,23.561977370345854,0.05919815989454249,0.03397167647804953,692.3076923076923,39.91615384615382,0.05765666666666664,53.84615384615381,2.9069767441860463,42.44186046511628,9.052631578947368,117.1875,,,0.07566069152450837,0.02294991711632931,0.0007805398357253832,3.2967740641936496,0.7612417472200711,0.23090504001713005,-3.7744409539710233,2021-10-21 15:53:35,2021-10-21 15:53:35.001,0.7281310432614093,0.5468882528696706,0.3923770585122724,0.8231807357393844,0.4056042861202184,-0.1628754967900161,-0.09719881844155606,0.3380169128683225,0.5572504684567172,0.3460628758869672,0.2147062698187784,0.4952429324178328,1.253166462332169,0.8630099476970762,1.0246266964965072,1.153481701374344,0.7110071545374544,0.6130379970333111,0.6182511050789516,0.8071000047488094,806.6666666666667,806.2637362637363,802.2344322344322,739.3772893772892,418.64468864468864,-0.717468,-0.047729,0.6940310000000001,3.843079,-5.375824,1.05423,24.0,79.0,-55.0
691.4579606440072,40.987250774389175,,,,,,,23.61056406773009,23.679862101427716,0.05927656214445001,0.034146058634916564,692.3076923076923,39.91615384615382,0.05765666666666664,53.84615384615381,2.9069767441860463,42.44186046511628,9.052631578947368,117.1875,,,0.07551592204314388,0.024028333379019128,0.0007835971426494168,3.142786511738774,0.7526915020368857,0.2394981330184125,-3.7285215874850497,2021-10-21 15:53:36,2021-10-21 15:53:36.035,1.019243333841134,0.5271312690955826,0.3771140903306963,0.9988243069535828,0.8260813104322082,-0.04295921488892526,-0.133929336776707,0.4621561506239372,0.9131829423835656,0.2209583953140546,0.2695444566208147,0.5432005843726012,1.1513703224397458,0.8444978604083252,0.8922507746800147,1.025348474428807,0.975177785431986,0.7213899951608195,0.6877463250329464,0.9821408733108008,791.3553113553114,798.6080586080586,785.7142857142858,797.3992673992674,636.2271062271062,-0.719666,-0.05072,0.695862,4.11972,-3.8206480000000003,1.540222,24.0,77.0,-53.0
691.4579606440072,40.987250774389175,,,,,,,23.551867733129228,23.620648582929807,0.05927656214445001,0.03406117085005948,692.3076923076923,39.91615384615382,0.05765666666666664,53.84615384615381,2.9069767441860463,41.860465116279066,9.052631578947368,117.1875,,,0.07549507627583231,0.02506656078139646,0.0007915522105363253,3.011784382158328,0.7448712450121504,0.2473189148017147,-3.6862205608497915,2021-10-21 15:53:37,2021-10-21 15:53:37.000,1.1913660088554792,0.6848755108445148,0.6338079054913919,0.9480404887897644,0.7918198416101276,-0.02188061628865838,0.1688349659729104,0.4371620277561376,0.9136221211257348,0.1856924006671632,0.5188828392627135,0.6972839571224131,1.077883461442595,0.7445383944787357,0.7999164829205802,1.0059293800031,1.067433592195106,0.7801788669516886,0.7379796827450921,0.9443123113389656,763.956043956044,800.6227106227108,787.7289377289377,763.956043956044,745.4212454212454,-0.723816,-0.056458,0.697876,3.259888,-4.643097,0.964508,20.0,75.0,-55.0
691.9051878354202,40.841900747842026,,,,,,,23.581234163156104,23.649413197306924,0.059028175342366214,0.03408159756241811,692.3076923076923,34.21384615384618,0.04942000000000003,48.076923076923094,2.9069767441860463,42.44186046511628,9.052631578947368,148.4375,,,0.0728945475412818,0.025244306662796756,0.000779421325994012,2.8875638580602634,0.7369168856883359,0.2552036671436121,-3.679154627386031,2021-10-21 15:53:38,2021-10-21 15:53:38.114,1.032968940355936,0.901965495003044,0.6197241320255924,0.8492383494172756,0.6676382452315273,0.2756299299189611,0.4399804123386023,0.6606693209216685,0.8781116766589223,0.2056803010432564,0.6508457978433059,1.060301412914375,1.2021092764945671,0.8033057257112097,0.9429064617904458,1.085283214474845,1.206885412053267,0.7689375741323848,0.81369647628723,1.072061850706574,813.5164835164835,795.3846153846154,797.3992673992674,745.4212454212454,622.1245421245421,-0.71936,-0.059082,0.707092,3.865509,-4.972076,1.181335,21.0,68.0,-47.0
692.0393559928442,40.80486605669025,,,,,,,23.49302474866189,23.561977370345854,0.058963216041591965,0.033947527037616644,692.3076923076923,34.21384615384618,0.04942000000000003,48.076923076923094,2.9069767441860463,41.860465116279066,8.6,117.1875,,,0.0690681438307825,0.024462184307514418,0.0007540457546596655,2.823465924486792,0.7325513335772617,0.25945109775334513,-3.7106268515035863,2021-10-21 15:53:39,2021-10-21 15:53:39.082,1.076541284384507,0.6451508481834648,0.5443578603290593,0.834305469714507,0.4646919145353479,0.1163258318688356,0.483956906184262,0.5484579786397394,0.9753172597741284,0.3953144529808981,0.4868296791035036,1.117752028939893,1.284338506458267,0.9026844451604328,0.8325325785075557,1.2003891068526231,1.081720637732361,0.7075316339679252,0.6711229498728212,1.056352962472138,783.6996336996338,785.3113553113553,788.9377289377289,757.5091575091576,637.8388278388279,-0.729492,-0.062134,0.685181,3.080444,-2.953339,0.508423,19.0,65.0,-46.0
691.5921288014313,40.833353472039384,,,,,,,23.46354791804627,23.532067924893628,0.059042536448189374,0.03392685795703017,692.3076923076923,34.21384615384618,0.04942000000000003,48.076923076923094,2.9069767441860463,41.860465116279066,8.6,117.1875,,,0.06575641129877358,0.02354123059271011,0.0007358247299286155,2.7932444329879687,0.7303552086389951,0.2614720000919235,-3.749001901850704,2021-10-21 15:53:40,2021-10-21 15:53:40.024,0.9366866339065448,0.6021972899919746,0.7626893388210484,0.8275733829447467,0.351286439770456,0.1747465070202061,0.1112523752942833,0.2601467174653746,0.6824420692495549,0.4941887793405169,0.4060460774328961,0.6958313252557253,1.3762795735685929,0.9220016022030962,0.9334949035792396,1.330969682051501,0.8338542490125348,0.8390459701887057,0.6575226794768092,0.8998632472413479,803.040293040293,783.6996336996338,812.3076923076924,831.2454212454213,674.9084249084249,-0.728455,-0.065247,0.696167,3.7159730000000004,-5.3085330000000015,0.650482,15.0,66.0,-51.0
691.4132379248657,40.897549776279504,,,,,,,23.441415970422163,23.508701751000128,0.0591506606078661,0.03390362620301679,692.3076923076923,34.21384615384618,0.04942000000000003,53.84615384615381,2.9069767441860463,41.860465116279066,9.052631578947368,117.1875,,,0.06262785944332634,0.02231382589208495,0.0007250828699942723,2.8066840597488656,0.7310636406075434,0.2604723670511589,-3.8025487974729,2021-10-21 15:53:41,2021-10-21 15:53:41.054,0.9852245668974908,0.9100766683864188,0.7258293794816321,0.8051107376719518,0.3464571149774956,0.4638172126956462,-0.1036748073514196,0.2355137078750358,0.659372594371536,0.4274825966706584,0.3173429779621301,0.683040809517396,1.391828497542837,0.9922467026137908,0.9287542213686192,1.340589932197155,0.8276878773387593,0.7902649926146496,0.8992990234345809,0.8813476120550868,803.4432234432236,795.3846153846154,797.3992673992674,748.6446886446887,668.0586080586081,-0.7299800000000001,-0.055664,0.7013550000000001,3.6711120000000004,-4.538422,0.291595,15.0,69.0,-54.0
691.5518008003556,40.836046944708684,,,,,,,23.151340951723338,23.21737657879035,0.059049874351346884,0.03347737786949514,692.3076923076923,34.21384615384618,0.04942000000000003,53.84615384615381,2.312138728323699,42.196531791907525,9.105263157894736,117.1875,,,0.06093330579607401,0.021303473477210972,0.0007260436361195273,2.860252149080589,0.7344651936761271,0.2567833727219527,-3.8488851455144215,2021-10-21 15:53:42,2021-10-21 15:53:42.049,0.623071575455209,0.8462208226271254,0.7466526805415635,1.063824943133353,0.5751290416973962,0.3453826332724272,0.2616404533721768,0.6457494505060869,0.6953062832278163,0.5255138502544178,0.1405295185913922,0.6350774705033548,1.109922223469765,1.026634418446467,0.7414247080571126,1.109242501245469,0.9429734463658648,0.7823778828773583,0.6675626373995326,0.949584291124952,801.4285714285713,787.3260073260074,809.4871794871796,761.9413919413921,592.7106227106228,-0.7307130000000001,-0.057250999999999996,0.690247,3.5440059999999995,-4.194489,0.8822629999999999,15.0,71.0,-56.0
690.4293381037567,39.65203937327709,,,,,,,23.278472083344212,23.33829212430413,0.05743098849504313,0.033715937024457604,692.3076923076923,34.21384615384618,0.04942000000000003,53.84615384615381,2.3255813953488373,42.44186046511628,9.052631578947368,148.4375,,,0.059773125887583836,0.02004760793033566,0.0007384359682744754,2.9815590017169216,0.7419779281020793,0.24885569182927916,-3.9096454375671588,2021-10-21 15:53:43,2021-10-21 15:53:43.000,0.5621686881617578,0.6883384024245821,0.9482324544993884,1.030701668028704,0.6171110732151809,0.3155761594449251,0.5153360834627989,0.6456166460509174,0.7342262555620591,0.6163768718227579,0.3358943092306354,0.5067905557779225,1.1012221519547691,1.037640750673885,0.7836694062071828,1.005379087259213,1.044303742646386,0.8777121223542366,0.7315965413695888,1.0323846971099742,823.1868131868132,761.5384615384613,807.8754578754579,797.3992673992674,874.7619047619047,-0.733521,-0.052673000000000005,0.680481,3.6412050000000002,-5.570221,1.2261959999999998,15.0,73.0,-58.0
689.8032200357782,38.87660623596402,,,,,,,23.009347754466106,23.074100362767016,0.05635898051323623,0.03335639365857509,688.4615384615386,39.91615384615382,0.057978770949720634,53.84615384615381,2.3255813953488373,41.860465116279066,8.6,148.4375,,,0.05953946905816985,0.01907171311842555,0.000756112742385957,3.121873147339219,0.7501763682250745,0.2402968771695454,-3.959549030241192,2021-10-21 15:53:44,2021-10-21 15:53:44.000,0.6805874851126943,0.7417024338365855,0.8700778346444521,0.9127675353056928,0.5878986682202104,0.2705917945834889,0.2363381114477957,0.6892440096848299,0.6942971862510662,0.6158442266498152,0.5082205584696239,0.7109820609101322,1.182288098107803,0.9564764613974264,0.9478859049655608,1.015065460146047,1.0950081241517309,0.8938200571386757,0.8269247882206303,1.1052434203462842,787.3260073260074,785.7142857142858,784.1025641025641,825.2014652014653,827.2161172161173,-0.735535,-0.057250999999999996,0.689758,4.187012,-5.517883,1.143951,14.000000000000002,72.0,-58.0
689.684304135171,38.57264191076065,,,,,,,22.942362611591115,23.00917288415763,0.05592796831751705,0.03326502063920342,692.3076923076923,34.21384615384618,0.04942000000000003,53.84615384615381,2.312138728323699,41.61849710982659,8.65,148.4375,,,0.059865463840497825,0.018145714167735957,0.0007800389433029992,3.2991517053069104,0.7597986952951891,0.23030122988069965,-4.00932088016434,2021-10-21 15:53:45,2021-10-21 15:53:45.047,0.9242464102225832,0.9066571195301888,0.745578627795323,0.6523687484598816,0.4221935198388997,0.02639062231962154,0.043078310428283036,0.4578457644670669,0.6226570425089879,0.2095210378313266,0.4549586405984981,0.6430486713804603,1.203079487814129,0.9165370947455392,0.8611082179215767,1.2040216115387472,0.9928732441439072,0.7715972556239252,0.8730512608181077,0.9044455856467958,834.8717948717949,819.96336996337,821.978021978022,807.4725274725273,626.1538461538463,-0.735107,-0.047546,0.677246,3.409424,-3.37204,1.517792,16.0,70.0,-54.0
689.5348837209302,38.617099547341574,,,,,,,22.668449682865447,22.732830221717943,0.0560045625813048,0.03287498604934956,688.4615384615386,39.91615384615382,0.057978770949720634,48.076923076923094,2.3255813953488373,40.69767441860465,8.6,148.4375,,,0.060766367469903874,0.017312754989568798,0.0008107279164866154,3.509918987851244,0.7702685095777756,0.21945478292914405,-4.0563117665036925,2021-10-21 15:53:46,2021-10-21 15:53:46.012,0.3585221914709087,0.7704852943648626,0.4250452313864683,0.5102464460350696,0.3569200101520937,0.3133086419439005,-0.1720238840246337,0.1798446708929056,0.5843940100129117,0.3956793179886853,0.2653845807528366,0.3989584391730226,1.328844665860991,0.8724879539921667,0.8129571755614191,1.3795798004581699,1.1502415024879429,0.6976497872597739,0.8178135502116254,1.0007943272151072,776.0439560439563,807.0695970695973,783.6996336996338,820.7692307692308,790.952380952381,-0.7384029999999999,-0.046936,0.6818850000000001,3.5365300000000004,-4.934692,0.91217,17.0,66.0,-49.0
689.4175188972878,38.52668023175743,,,,,,,22.874785549890703,22.9415295404526,0.05588294346418734,0.0331798727518247,684.6153846153846,34.21384615384618,0.049975280898876435,46.15384615384619,2.312138728323699,41.04046242774567,8.65,148.4375,,,0.06262748792579373,0.016429143567272802,0.0008576119043494817,3.8119752054847815,0.7836836746904464,0.2055846726292604,-4.108698474446609,2021-10-21 15:53:47,2021-10-21 15:53:47.057,0.0856908917408071,0.5004269817444484,0.5601378596141944,0.1975915286269087,-0.046668094269191336,-0.002842840756416427,-0.008916822928244408,0.2797434445923958,0.5111366114280494,0.264928294485725,0.1145526080294769,0.4648803422966635,1.34452336596005,0.7868113147755709,0.9463216282316208,1.297432177649226,1.281917648965043,0.8461884527614769,0.8993603595486946,1.1087114733326309,790.952380952381,801.025641025641,814.3223443223442,745.8241758241759,689.8168498168499,-0.727356,-0.056090999999999995,0.678711,3.798218,-4.09729,1.0841370000000001,19.0,59.0,-40.0
689.7584973166369,38.51148563034593,,,,,,,22.91138709320973,22.978630427719626,0.05583328915869383,0.033216534747077066,692.3076923076923,34.21384615384618,0.04942000000000003,48.076923076923094,2.3255813953488373,41.27906976744186,8.6,148.4375,,,0.06472848319979572,0.015885201831677333,0.0009027852632547199,4.074766180856325,0.7940540477987571,0.19487107052407213,-4.142367305538585,2021-10-21 15:53:48,2021-10-21 15:53:48.038,0.06385663722404589,0.8641046471659625,0.7771947508830127,0.4018568282022891,0.2159312607854222,0.4035166507231132,0.2253045328389937,0.2815235863723664,0.5317955824652175,0.6329747737110468,0.08454950125908549,0.4640743238463608,1.2527031196105491,0.9936852132964944,0.8421221420136077,1.254959641292288,1.1959067701026989,0.8069790990128721,0.8693346328781079,1.006836351491127,801.025641025641,804.6520146520148,800.6227106227108,793.3699633699632,629.7802197802197,-0.7341310000000001,-0.050414999999999995,0.678955,3.4019470000000003,-4.478607,1.099091,25.0,57.99999999999999,-32.99999999999999
690.1734104046242,38.64305147878656,,,,,,,23.03215693762516,23.098707492210803,0.055990350970101126,0.03337155067176844,692.3076923076923,34.21384615384618,0.04942000000000003,53.84615384615381,2.312138728323699,41.61849710982659,8.65,148.4375,,,0.06711872561598613,0.015208064808114291,0.0009546344718689547,4.413363992253295,0.8059267201519089,0.1826105260219956,-4.185929412356227,2021-10-21 15:53:49,2021-10-21 15:53:49.000,0.1556078577298841,1.1745254881060159,0.9296436002151856,0.5869536340900446,0.2114143565243054,0.7427172566898271,0.4985954091666762,0.2321131860043463,0.4943800972733792,0.667360232748179,0.1555775729631852,0.1739563670788729,1.114253153890283,1.172635680521011,0.9208238884226244,1.098389950600366,0.9907968660803188,0.7020024768279888,0.8621375028336837,0.7754690155576536,808.2783882783882,809.4871794871796,821.978021978022,836.4835164835165,722.8571428571429,-0.73761,-0.056519000000000014,0.677612,3.55896,-4.9272160000000005,1.26358,23.0,55.00000000000001,-32.00000000000001
690.3398926654743,38.782931525668175,,,,,,,23.061923450328933,23.12855311256969,0.05617947323878855,0.03340662142714141,692.3076923076923,34.21384615384618,0.04942000000000003,53.84615384615381,2.3255813953488373,41.27906976744186,8.6,148.4375,,,0.06910624148341349,0.014779611196870275,0.0009955611969017268,4.675782100279296,0.8141504521048976,0.17412069994798654,-4.214506669838518,2021-10-21 15:53:50,2021-10-21 15:53:50.000,0.6898675960732891,0.8331625890880845,0.7660097080153817,0.6978802571143157,0.4424278271868366,0.1652310341759176,0.11741096173864699,0.3721473526998184,0.6616087304896664,0.4725945996257412,0.1957393806138561,0.4999826509546497,1.085574993647221,1.189487666420857,0.9857044811443346,1.027247094179067,0.8530701507687205,0.6654347165195159,0.7767722924322508,0.7259999798573917,790.952380952381,775.6410256410257,781.6849816849817,765.5677655677656,617.6923076923077,-0.737,-0.052673000000000005,0.671875,3.596344,-5.52536,1.345825,28.000000000000004,50.0,-22.0
690.395731436194,38.659206450786634,,,,,,,23.114161963622717,23.18160531899708,0.05599572055633355,0.03347958411553262,692.3076923076923,34.21384615384618,0.04942000000000003,53.84615384615381,2.312138728323699,41.61849710982659,8.238095238095237,148.4375,,,0.07116440230323615,0.014479476747154487,0.0010357678194335767,4.9148462714456445,0.8210047557082354,0.16704586682153671,-4.235023028923734,2021-10-21 15:53:51,2021-10-21 15:53:51.034,0.5874940545982681,0.4649269935076972,0.6610649777636665,0.722766170563577,0.2898124321131717,0.07090041512571857,0.04201334800938917,0.3556272956699251,0.607345210094299,0.5097246372761782,0.1502712399339721,0.75370384654513,1.159598875115394,0.9864941040623888,0.9558528853599604,1.1611139388387308,0.8530238799849748,0.6818736409267048,0.6271200430693017,0.7769314201732739,819.1575091575091,821.978021978022,801.8315018315019,784.9084249084249,600.7692307692307,-0.744019,-0.050781,0.6818850000000001,4.321594,-5.069275,1.211243,33.0,47.0,-14.0
690.742397137746,38.87709784657892,,,,,,,23.35267843057843,23.41969767868535,0.056283062987989935,0.03380808609308732,692.3076923076923,34.21384615384618,0.04942000000000003,53.84615384615381,2.3255813953488373,42.44186046511628,8.19047619047619,101.5625,,,0.0737731690005672,0.014304790835623875,0.0010845494104514183,5.157235072381939,0.8274012208034086,0.1604350411006691,-4.2471607743539055,2021-10-21 15:53:52,2021-10-21 15:53:52.009,0.6220302319304294,0.6520269281579391,0.7079402673219632,0.5856748068509047,0.4647780458448496,0.053912021234456035,-0.0030957158511240052,0.2748416418719278,0.6969891326125335,0.4176213120114177,0.2662957275427679,0.7949979721069069,1.313770640076684,0.9561683273939507,1.097493938760409,1.2446103435548321,1.026501133740442,0.6818615805528753,0.9185985390829048,0.9185366221104876,780.0732600732601,816.3369963369963,814.7252747252749,832.4542124542122,732.9304029304027,-0.734375,-0.051636,0.672485,4.164581,-3.91037,1.547699,38.0,43.0,-5.0
690.8765652951699,38.89564513721019,,,,,,,23.38969331897035,23.458342279485368,0.05629897884956109,0.033855097269043045,692.3076923076923,34.21384615384618,0.04942000000000003,53.84615384615381,2.3255813953488373,43.0232558139535,8.19047619047619,101.5625,,,0.07582137288105477,0.01433894559778811,0.0011207746680806897,5.287792771370218,0.830636118248658,0.15708560341963185,-4.244775975259633,2021-10-21 15:53:53,2021-10-21 15:53:53.002,0.5929697360856158,0.7613944766584793,0.8861711654565145,0.6465483919112256,0.5355022302920479,-0.06734335484665321,0.2797031491346892,0.3639840578486965,0.7514427390401516,0.2703384652768231,0.290441476386429,0.5821866177156996,1.210033691194136,0.9346501317340814,0.8495751448602492,1.0180228290430229,0.997734464865744,0.5843561012578979,0.7604013857502525,0.8680593738010864,795.3846153846154,806.6666666666667,811.5018315018315,833.6630036630037,646.3003663003664,-0.750977,-0.055603,0.670715,3.3047489999999997,-4.501037999999999,1.0841370000000001,53.0,48.0,5.0
690.9293019119609,38.78861413955222,,,,,,,23.328975328082095,23.397089269611783,0.056139772958268205,0.03376463447638628,692.3076923076923,34.21384615384618,0.04942000000000003,53.84615384615381,2.312138728323699,42.774566473988436,8.238095238095237,101.5625,,,0.07574936039256303,0.014157357200259927,0.0011235215206233024,5.35052971547347,0.8321340373297332,0.15552367365108588,-4.2575208465354,2021-10-21 15:53:54,2021-10-21 15:53:54.016,0.8619643392194587,0.4023560081515625,0.764069524127845,1.1345137113961192,0.6478124839592324,0.10535570643234299,0.2304945917957031,0.6652921705776577,1.0350664532749632,0.5270776351215588,0.2097562361320222,0.90036911264653,1.1934685880902742,0.9171070830717856,0.9381557895518924,1.0894903220792378,0.953904349503,0.7203402428861383,0.7623155861855653,0.9157949799382402,782.8937728937732,807.8754578754579,808.6813186813188,776.4468864468864,660.8058608058608,-0.739685,-0.060242,0.659424,3.573914,-5.00946,1.188812,68.0,53.0,15.0
690.6976744186046,38.95972946309735,,,,,,,23.5077493033815,23.57674519613412,0.05640634232030928,0.034034788553717325,692.3076923076923,34.21384615384618,0.04942000000000003,53.84615384615381,2.3255813953488373,43.0232558139535,8.6,101.5625,,,0.07567497795077624,0.014169229398231259,0.0011243448478814614,5.3407970062382315,0.8318806458190972,0.155759645020665,-4.256682609381395,2021-10-21 15:53:55,2021-10-21 15:53:55.013,1.3516079903727052,0.1644863918488038,0.3599731027715544,1.5598576635011092,0.8871704243385808,0.4574457698929079,-0.05395432730357178,1.181390312468394,1.118571420211842,0.6300926307610569,0.1257138931510305,0.8494059642841385,1.2219215506152692,0.9745892525892256,1.040614288460468,1.2080858943740382,1.05383387361111,0.5511226346279147,0.8697969606720141,0.9520713731367118,777.6556776556778,794.1758241758242,795.7875457875458,796.9963369963368,1624.6153846153852,-0.750183,-0.066101,0.6704100000000001,3.708496,-5.278625,1.2710569999999999,76.0,51.0,25.0
690.1289461983104,39.341986006945596,,,,,,,23.549134110459665,23.61635752767528,0.05700671769191459,0.03412280305033425,692.3076923076923,45.61846153846145,0.06589333333333322,53.84615384615381,2.312138728323699,43.352601156069355,8.65,101.5625,,,0.07566511799346544,0.01438506247612296,0.0011243157337552598,5.2599784060067964,0.8298934586346587,0.15777506951110976,-4.2415649388443,2021-10-21 15:53:56,2021-10-21 15:53:56.022,1.6430324383862631,0.3510182491237137,0.2602704051919954,1.7068279313906431,1.031802979270449,-0.000667124915572313,0.07925432071331245,1.362308459568921,0.6616853735522689,0.2480979500044725,0.1614178216684986,0.8494059642841385,1.2588023414250822,0.8860875630156779,1.0330469455512499,1.244550731235433,1.010931075695038,0.5578679571593265,0.6946878252611757,1.0212929184658641,779.6703296703297,798.2051282051282,804.6520146520148,771.2087912087912,347.3260073260074,-0.7407229999999999,-0.060302999999999995,0.671021,3.6711120000000004,-4.583282,1.0916139999999999,83.0,49.0,34.0
690.0400177856827,39.424289077394576,,,,,,,23.65844523842365,23.7274787437121,0.057133337286590875,0.03428561333927108,692.3076923076923,45.61846153846145,0.06589333333333322,53.84615384615381,2.312138728323699,43.930635838150295,8.65,101.5625,,,0.07573905655752816,0.014934380084283548,0.0011235768577374011,5.071456339673147,0.8250710308554884,0.16268917162928073,-4.20408933575614,2021-10-21 15:53:57,2021-10-21 15:53:57.052,1.339480778028155,0.5129364094368134,0.5698041982259714,0.6453916894013092,0.877981904808273,0.007464176019494206,0.1845745674948302,0.6246572909838893,1.0754948557690291,-0.03456688843710298,0.1674892801750169,0.7486990460271102,1.031107001501053,0.8354987834164328,0.8900914947195903,0.9958871688183236,0.8358678151608133,0.7786146425543514,0.6688993886582412,0.7370748122724233,810.6959706959708,815.934065934066,820.3663003663004,745.0183150183151,643.4798534798535,-0.743958,-0.058472,0.671692,4.052429,-5.413208,0.8822629999999999,85.0,44.0,41.0
690.3398926654739,39.5165435189405,,,,,,,23.72022821595184,23.7898912975633,0.057242155550888164,0.03436021656573485,692.3076923076923,45.61846153846145,0.06589333333333322,53.84615384615381,2.3255813953488373,44.1860465116279,8.6,101.5625,,,0.0760019734321479,0.015806718856274483,0.0011247545350814038,4.808206821618701,0.8178107670588007,0.17008643708539178,-4.1473201852718455,2021-10-21 15:53:58,2021-10-21 15:53:58.000,1.340600767846422,0.7253959714957552,0.6413681634436315,1.325187933294846,0.6817274458829231,0.2045379096094249,0.1315957103193111,0.749925202353912,0.8957046887962962,0.274003771519478,0.1923894237997795,0.9306582295912932,1.014325030671108,0.8028890068342897,0.8573173522019287,0.9127426077924622,0.7716327440094973,0.6500980781130985,0.6045581672768802,0.5809243398416208,817.5457875457878,811.098901098901,807.0695970695973,756.7032967032968,701.098901098901,-0.737,-0.06488,0.684387,3.6412050000000002,-5.256195,0.8747860000000001,83.0,34.0,49.0
690.2951699463325,39.50114000453917,,,,,,,23.61056406773009,23.678830576327876,0.05722354975714261,0.034203577101033035,692.3076923076923,45.61846153846145,0.06589333333333322,53.84615384615381,2.3255813953488373,43.6046511627907,8.6,101.5625,,,0.07648794514315377,0.016769771899796837,0.0011308785685635954,4.561060555873179,0.8103515541004958,0.17766735261978128,-4.088177304921286,2021-10-21 15:53:59,2021-10-21 15:53:59.061,1.1410592321512492,0.6636161427373514,0.3173548456805917,1.223002679823689,0.4744191269146024,0.2006359400731036,0.050987111263825366,0.5056745698330117,0.7001280292761053,0.2953907843772532,0.4036869198877474,0.8400305065203552,1.085208549169437,0.8601378757240431,0.7895697087104673,0.9890433380913358,0.8640063570594423,0.5456821533070836,0.5591496499696279,0.8075315345051792,806.2637362637363,800.6227106227108,799.4139194139194,778.8644688644687,739.3772893772892,-0.7422489999999999,-0.055541999999999994,0.676941,3.4468080000000003,-4.373932,1.323395,86.0,25.0,61.0
