HRV_MeanNN,HRV_SDNN,HRV_SDANN1,HRV_SDNNI1,HRV_SDANN2,HRV_SDNNI2,HRV_SDANN5,HRV_SDNNI5,HRV_RMSSD,HRV_SDSD,HRV_CVNN,HRV_CVSD,HRV_MedianNN,HRV_MadNN,HRV_MCVNN,HRV_IQRNN,HRV_pNN50,HRV_pNN20,HRV_HTI,HRV_TINN,HRV_ULF,HRV_VLF,HRV_LF,HRV_HF,HRV_VHF,HRV_LFHF,HRV_LFn,HRV_HFn,HRV_LnHF,Time,TimeStamp,Delta_TP9,Delta_AF7,Delta_AF8,Delta_TP10,Theta_TP9,Theta_AF7,Theta_AF8,Theta_TP10,Alpha_TP9,Alpha_AF7,Alpha_AF8,Alpha_TP10,Beta_TP9,Beta_AF7,Beta_AF8,Beta_TP10,Gamma_TP9,Gamma_AF7,Gamma_AF8,Gamma_TP10,RAW_TP9,RAW_AF7,RAW_AF8,RAW_TP10,AUX_RIGHT,Accelerometer_X,Accelerometer_Y,Accelerometer_Z,Gyro_X,Gyro_Y,Gyro_Z,Attention,Meditation,A_M
657.0760730981725,57.312391242536364,,,,,,,28.234250699416968,28.31141827379001,0.08722337274024196,0.042969531010754895,653.8461538461537,68.42769230769235,0.1046541176470589,92.30769230769238,8.839779005524859,42.5414364640884,10.647058823529411,70.3125,,,0.043163684337386814,0.010991865623332387,0.00024226148317352408,3.9268751835687863,0.7934820021556735,0.20206448258804816,-4.510599768528435,2021-10-21 15:58:00,2021-10-21 15:58:00.012,1.044865334156488,1.243516231265886,1.137092388486749,0.7581720063931205,0.9165622880319336,0.9286552005339141,0.6716630682311058,0.3044436960354729,1.067215418637289,0.7006922918832522,0.7351881791707949,0.7052131415383341,1.327351400831214,1.309138615568355,1.298347442527699,1.372503459888809,1.5087397889337781,1.2695678350729298,1.34029955916201,1.518289378259041,753.0769230769231,785.3113553113553,913.4432234432236,798.6080586080586,819.5604395604396,-0.226196,-0.036072,0.992554,-15.207825,-3.708496,42.303771999999995,82.0,91.0,-9.0
656.8635784105397,56.99334185847341,,,,,,,27.54471590152981,27.620352488836023,0.08676587305446942,0.04193369339822701,653.8461538461537,68.42769230769235,0.1046541176470589,92.30769230769238,8.287292817679559,41.988950276243095,10.647058823529411,70.3125,,,0.04316205925649392,0.010878685101778552,0.0002449838568625017,3.9675805350260003,0.7950903612353173,0.2003967794015067,-4.52094989947379,2021-10-21 15:58:01,2021-10-21 15:58:01.040,0.9866985634335738,1.243516231265886,1.271473079735552,0.7700608987583999,0.9502732280152212,0.9286552005339141,0.8636345149702169,0.3924980113290453,1.014949828842291,0.7006922918832522,0.7108848815127561,0.6698059298841731,1.373381145915131,1.309138615568355,1.2552354173350868,1.377199577080813,1.504778325268499,1.2695678350729298,1.226275534491786,1.5440652162698132,794.1758241758242,775.2380952380953,765.5677655677656,772.0146520146519,748.2417582417582,-0.325317,-0.085754,0.9554440000000001,6.512299,-5.233765,0.112152,84.0,85.0,-1.0
657.4585635359116,57.646941915466655,,,,,,,27.160128567928943,27.235754327123107,0.08768148308150812,0.04131078378819445,653.8461538461537,68.42769230769235,0.1046541176470589,92.30769230769238,7.734806629834254,41.43646408839779,10.647058823529411,70.3125,,,0.04320046830241822,0.010812744628313685,0.00024659899601765984,3.995328641101515,0.7961779956174305,0.1992772227613105,-4.527029782396147,2021-10-21 15:58:02,2021-10-21 15:58:02.000,1.3197181797725572,0.7685189965552401,0.8551250703429265,0.7700608987583999,0.9730676496173996,0.3578165394190513,0.3806622162839671,0.3924980113290453,0.97457877036503,0.6324321437370243,0.5796369406457822,0.6698059298841731,1.4397328117648331,1.451627423543122,1.330858569710385,1.377199577080813,1.14061056799272,1.3474100729896148,1.625344524057923,1.5440652162698132,874.7619047619047,831.6483516483516,743.0036630036632,828.4249084249085,587.4725274725274,-0.488037,-0.114258,0.864075,-4.792633,17.44339,7.125397,86.0,83.0,3.0
657.2460688482787,57.30250330427854,,,,,,,27.21453956450645,27.28961076692177,0.08718576804071608,0.04140692634677251,653.8461538461537,68.42769230769235,0.1046541176470589,92.30769230769238,7.734806629834254,41.988950276243095,10.647058823529411,70.3125,,,0.04329566076564096,0.010772829103460578,0.00024715121779010543,4.018968494704239,0.7971122111286244,0.19833751177173267,-4.530728138608088,2021-10-21 15:58:03,2021-10-21 15:58:03.053,1.24980278338309,0.7695854465506541,0.7900525816048565,0.7700608987583999,0.7418190715340636,0.041052173245833566,0.3686426901155171,0.3924980113290453,0.9418795743501404,0.440224999039266,0.5424754437593421,0.6698059298841731,1.458992636839999,1.510831091060858,1.373022040487551,1.377199577080813,1.137724659246383,1.3906888233726091,1.640756420121268,1.5440652162698132,949.3040293040292,954.1391941391942,807.8754578754579,974.6886446886447,635.8241758241759,-0.703796,-0.117798,0.685791,-10.826416,-2.347717,38.44574,85.0,81.0,4.0
657.1428571428571,56.74767496042271,,,,,,,27.217442432719093,27.291743898123865,0.08635515754846934,0.04141784718022471,653.8461538461537,68.42769230769235,0.1046541176470589,92.30769230769238,7.6923076923076925,42.307692307692314,10.705882352941176,70.3125,,,0.04351901926819847,0.010769097492453958,0.0002467902256641566,4.041101800656256,0.7980029979535469,0.1974716394979099,-4.531074589611653,2021-10-21 15:58:04,2021-10-21 15:58:04.012,1.24980278338309,0.7695854465506541,0.7900525816048565,0.7700608987583999,0.7418190715340636,0.041052173245833566,0.3686426901155171,0.3924980113290453,0.9418795743501404,0.440224999039266,0.5424754437593421,0.6698059298841731,1.458992636839999,1.510831091060858,1.373022040487551,1.377199577080813,1.137724659246383,1.3906888233726091,1.640756420121268,1.5440652162698132,768.3882783882782,840.1098901098901,805.8608058608058,1017.3992673992668,835.6776556776558,-0.743958,-0.131714,0.659668,5.659943,-8.52356,0.747681,100.0,78.0,22.0
656.7360815979599,56.60355296831721,,,,,,,27.23265240482411,27.30807732050991,0.08618919312395677,0.04146666091280083,653.8461538461537,68.42769230769235,0.1046541176470589,92.30769230769238,7.734806629834254,42.5414364640884,10.647058823529411,70.3125,,,0.04377829800530618,0.01080746377748922,0.00024544451185176875,4.0507466790211835,0.798419384940287,0.1971042497116152,-4.527518293036781,2021-10-21 15:58:05,2021-10-21 15:58:05.019,1.24980278338309,0.7695854465506541,0.7900525816048565,0.7700608987583999,0.7418190715340636,0.041052173245833566,0.3686426901155171,0.3924980113290453,0.9418795743501404,0.440224999039266,0.5424754437593421,0.6698059298841731,1.458992636839999,1.510831091060858,1.373022040487551,1.377199577080813,1.137724659246383,1.3906888233726091,1.640756420121268,1.5440652162698132,815.5311355311355,803.8461538461539,805.4578754578755,778.0586080586081,695.4578754578755,-0.719116,-0.11871300000000001,0.6875,4.037476,-5.031891000000001,0.934601,100.0,90.0,10.0
657.0760730981725,57.094015680213445,,,,,,,27.32905147584457,27.403138815466967,0.08689102832646156,0.041591913927082516,653.8461538461537,68.42769230769235,0.1046541176470589,92.30769230769238,7.734806629834254,43.093922651933696,10.647058823529411,70.3125,,,0.04405669011340972,0.010873759435236358,0.00024329811917242348,4.051652087376906,0.7985082031885775,0.19708212501176087,-4.521402783435223,2021-10-21 15:58:06,2021-10-21 15:58:06.016,1.24980278338309,0.7695854465506541,0.7900525816048565,0.7700608987583999,0.7418190715340636,0.041052173245833566,0.3686426901155171,0.3924980113290453,0.9418795743501404,0.440224999039266,0.5424754437593421,0.6698059298841731,1.458992636839999,1.510831091060858,1.373022040487551,1.377199577080813,1.137724659246383,1.3906888233726091,1.640756420121268,1.5440652162698132,890.4761904761905,811.5018315018315,816.7399267399268,637.032967032967,694.6520146520148,-0.769165,-0.07312,0.6443479999999999,-10.295563000000001,1.039276,27.312775,100.0,99.0,1.0
657.5435614109647,57.85214985416572,,,,,,,27.23265240482411,27.30000604695093,0.08798223151942343,0.0414157388240377,653.8461538461537,68.42769230769235,0.1046541176470589,92.30769230769238,7.734806629834254,43.093922651933696,10.647058823529411,70.3125,,,0.04430525683054744,0.010952301999211796,0.00023994397505119994,4.0452917417485335,0.7983288362788664,0.19734765432116827,-4.514205616575967,2021-10-21 15:58:07,2021-10-21 15:58:07.039,1.24980278338309,0.7695854465506541,0.7900525816048565,0.7700608987583999,0.7418190715340636,0.041052173245833566,0.3686426901155171,0.3924980113290453,0.9418795743501404,0.440224999039266,0.5424754437593421,0.6698059298841731,1.458992636839999,1.510831091060858,1.373022040487551,1.377199577080813,1.137724659246383,1.3906888233726091,1.640756420121268,1.5440652162698132,791.7582417582418,747.4358974358977,858.2417582417582,998.4615384615383,1473.516483516484,-0.798584,0.025513,0.611328,4.4711300000000005,-6.878661999999999,0.568237,100.0,100.0,0.0
658.2660433489162,58.49932172525713,,,,,,,27.38912860149042,27.46218453197542,0.08886881271840016,0.04160799251036669,653.8461538461537,68.42769230769235,0.1046541176470589,92.30769230769238,7.734806629834254,43.646408839779006,10.647058823529411,70.3125,,,0.04446083547587599,0.011033315887316814,0.00023374197275616065,4.029689345429263,0.7978201366387411,0.19798551904346687,-4.506835866478436,2021-10-21 15:58:08,2021-10-21 15:58:08.017,1.24980278338309,0.7695854465506541,0.7900525816048565,0.7700608987583999,0.7418190715340636,0.041052173245833566,0.3686426901155171,0.3924980113290453,0.9418795743501404,0.440224999039266,0.5424754437593421,0.6698059298841731,1.458992636839999,1.510831091060858,1.373022040487551,1.377199577080813,1.137724659246383,1.3906888233726091,1.640756420121268,1.5440652162698132,760.3296703296703,796.1904761904763,830.0366300366301,902.9670329670328,641.4652014652015,-0.77063,-0.13739,0.638794,12.030182,-6.773986999999999,-15.379791,88.0,96.0,-8.0
658.8610284742881,58.84342159794242,,,,,,,27.431104302136912,27.497971859689933,0.08931082436945012,0.0416341278610128,653.8461538461537,68.42769230769235,0.1046541176470589,92.30769230769238,7.734806629834254,43.646408839779006,10.647058823529411,70.3125,,,0.04440874438646309,0.011061881938068428,0.0002271063844235418,4.014574069321294,0.7973169144697172,0.19860560565133925,-4.5042501402139905,2021-10-21 15:58:09,2021-10-21 15:58:09.021,1.4097213441665348,0.7695854465506541,0.7900525816048565,0.7700608987583999,0.4457755072812623,0.041052173245833566,0.3686426901155171,0.3924980113290453,1.044918698454369,0.440224999039266,0.5424754437593421,0.6698059298841731,1.3888558570519522,1.510831091060858,1.373022040487551,1.377199577080813,1.303012209243885,1.3906888233726091,1.640756420121268,1.5440652162698132,797.8021978021977,807.4725274725273,794.5787545787546,782.8937728937732,749.4505494505495,-0.710938,-0.056396,0.706299,-6.729125999999999,-8.673096000000001,19.424744,87.0,90.0,-3.0
660.0854700854701,59.27168561412142,,,,,,,27.501611469759467,27.56245417573166,0.08979395593489846,0.04166371283130725,653.8461538461537,68.42769230769235,0.1046541176470589,100.00000000000013,7.777777777777778,43.88888888888889,10.588235294117649,70.3125,,,0.04404769573873223,0.011029366423646112,0.00021702698017783768,3.993674164664378,0.7966076740168535,0.19946736793531056,-4.50719388855909,2021-10-21 15:58:10,2021-10-21 15:58:10.016,1.004598296039768,0.9186315169504404,1.257226174445056,0.7700608987583999,0.7039814278184341,0.8098914657350463,0.8612632290119937,0.3924980113290453,1.108288785916582,1.120764077465872,0.8823631231286434,0.6698059298841731,1.4169676530291229,1.307173617099192,1.332729741163719,1.377199577080813,1.145676747539441,1.077341283902947,1.4372914536087502,1.5440652162698132,781.2820512820513,825.6043956043958,764.3589743589743,800.6227106227108,1124.578754578755,-0.680664,-0.046875,0.739624,4.358978,-4.299164,-0.530853,79.0,81.0,-2.0
662.051282051282,60.80678043299578,,,,,,,27.483575653105568,27.545806618905512,0.09184602776478837,0.04151275950701461,653.8461538461537,68.42769230769235,0.1046541176470589,100.00000000000013,7.777777777777778,43.88888888888889,11.25,70.3125,,,0.043507622822389284,0.010943111221678993,0.0002077754829287148,3.975800112147078,0.7959899235982633,0.2002087381521803,-4.5150451328691625,2021-10-21 15:58:11,2021-10-21 15:58:11.000,1.1439555700346722,0.7521920467799713,1.09179526763978,0.7700608987583999,0.7920410828016712,0.5424181357669605,0.6525830524147738,0.3924980113290453,1.2244154479988831,0.9682359374500156,0.7681137506735579,0.6698059298841731,1.269251655823926,1.278465450114115,1.3204840725004279,1.377199577080813,1.0979609586561558,1.0958831333331578,1.393177704832619,1.5440652162698132,794.1758241758242,807.4725274725273,826.4102564102565,737.7655677655678,674.1025641025641,-0.644714,-0.101501,0.763367,7.5740050000000005,-5.323486,-5.8992,70.0,77.0,-7.0
663.0769230769231,62.208428679110746,,,,,,,27.53164490829269,27.58784423655571,0.09381781587336888,0.04152104220508178,653.8461538461537,68.42769230769235,0.1046541176470589,101.923076923077,7.777777777777778,44.444444444444436,11.25,70.3125,,,0.04276251124947252,0.01080702673143255,0.0001979813734706193,3.9569173198301164,0.795322376091588,0.20099544969156288,-4.527558733134738,2021-10-21 15:58:12,2021-10-21 15:58:12.021,1.068460533029268,1.149980152993156,1.1386063545302518,0.7700608987583999,1.095401027549447,1.005840512823351,0.8527361275278273,0.3924980113290453,1.159833001710012,0.9102747036677622,1.007014234778784,0.6698059298841731,1.117083341000076,1.332231793362996,1.3322838391810792,1.377199577080813,1.032752016142707,1.210328434171933,1.106359726804048,1.5440652162698132,808.2783882783882,861.0622710622711,809.4871794871796,879.1941391941392,954.9450549450548,-0.278503,-0.14965799999999999,0.9467770000000001,13.876953,-30.512847999999998,-22.10144,56.99999999999999,78.0,-21.000000000000007
664.3317576278471,63.68187215930615,,,,,,,27.560668583371648,27.609825015164304,0.09585853969513257,0.04148630299081818,653.8461538461537,68.42769230769235,0.1046541176470589,107.69230769230774,7.82122905027933,44.6927374301676,11.1875,78.125,,,0.04157767413747029,0.01057864845242035,0.0001862614767977634,3.9303389581830266,0.7943374382223314,0.20210405430007725,-4.548917606230062,2021-10-21 15:58:13,2021-10-21 15:58:13.007,0.4685930878816301,1.361207742602224,1.158297866312504,0.7700608987583999,0.7174723992847061,1.030780062123196,0.9706826053278362,0.3924980113290453,0.9394573529803713,1.109626166489613,1.10022121001132,0.6698059298841731,1.126319718479449,1.2525835126619171,1.135926976668125,1.377199577080813,1.0228683110154242,1.059541248098779,0.9003900581718277,1.5440652162698132,811.9047619047618,817.5457875457878,807.0695970695973,709.9633699633699,872.3443223443222,-0.120056,-0.106995,0.9978030000000001,4.3365480000000005,-6.018829,4.07486,48.0,76.0,-28.0
665.8599827139154,64.66374151480187,,,,,,,27.583930085171023,27.627003231980485,0.0971131216674789,0.04142602168813976,661.5384615384615,79.83230769230782,0.12067674418604668,107.69230769230774,7.865168539325843,44.382022471910105,11.866666666666667,78.125,,,0.039412203129385585,0.010091156340396685,0.0001732334813382895,3.905618127390572,0.7933757286488095,0.20313704585831613,-4.596095848566875,2021-10-21 15:58:14,2021-10-21 15:58:14.018,1.249896884870802,1.022141674273953,0.8145371811730197,1.417444588795589,0.9237068745670082,0.5270494426214098,0.5809292359425617,0.9763690191243416,1.1356685325450575,0.8876720704815181,0.9881236946223516,1.070370635190879,0.9096171832556872,1.027876872763024,0.957037321131479,0.9928896996173504,0.9162984637030248,0.8234921307762683,0.7253829980910351,0.9636176521006856,796.1904761904763,785.3113553113553,813.1135531135533,899.7435897435898,767.9853479853481,-0.106262,-0.098267,1.002075,3.521576,-2.960815,0.852356,44.0,77.0,-33.0
668.0704770090247,66.15899000700246,,,,,,,27.626927525989828,27.68193735510504,0.0990299560956482,0.04135331297631438,661.5384615384615,79.83230769230782,0.12067674418604668,111.53846153846165,7.82122905027933,44.1340782122905,11.933333333333335,78.125,,,0.03333287602845842,0.00859721816782677,0.00014480938248714444,3.877169960999652,0.7922270330590978,0.2043312625002484,-4.7563165969073635,2021-10-21 15:58:15,2021-10-21 15:58:15.007,1.136526512603272,0.2078526969570214,0.5323533026432775,1.6484985019825718,0.8556118899318499,0.1147694929037532,0.05177851550320834,0.9616695592271474,1.081942835273723,0.5419602965051625,0.5178358426691231,1.067061368519858,0.8611668513685725,1.0846627071812032,0.829616181940825,0.9615801610026592,0.7785549431551912,1.004160320506681,0.926070027027404,1.0779410719851301,767.9853479853481,795.3846153846154,773.6263736263736,775.2380952380953,915.8608058608058,-0.276306,-0.101074,0.9625239999999999,1.6972349999999998,8.553467,2.64679,47.0,73.0,-26.0
669.4900605012965,66.51387671313171,,,,,,,26.846915308191477,26.917996777691158,0.09935005855550398,0.04010054352127231,661.5384615384615,79.83230769230782,0.12067674418604668,107.69230769230762,7.303370786516854,43.820224719101134,13.692307692307693,78.125,,,0.029304591062826343,0.007629163667650226,0.00012684030365951368,3.84112759136181,0.7907210080095646,0.2058564807344052,-4.875777050748519,2021-10-21 15:58:16,2021-10-21 15:58:16.000,0.5856349152794134,0.3693708694573521,0.723431635893424,1.6484985019825718,0.6723110925608577,0.1149409298357493,0.687255314035479,0.9616695592271474,0.9619242860988568,0.6620092524437371,0.7179030350845954,1.067061368519858,0.874643654555692,1.4233282633171829,1.1703721498396,0.9615801610026592,0.8254333888608603,1.320425825142407,1.302514129591857,1.0779410719851301,906.9963369963368,811.098901098901,767.5824175824176,689.8168498168499,592.7106227106228,-0.521729,-0.114685,0.8629760000000001,3.55896,0.239258,-0.037384,56.00000000000001,63.0,-6.999999999999992
669.7061365600691,66.65075251682039,,,,,,,26.753360899014282,26.82893851956496,0.09952238583204644,0.039947910640975054,661.5384615384615,79.83230769230782,0.12067674418604668,107.69230769230762,7.303370786516854,43.820224719101134,13.692307692307693,78.125,,,0.027604409834956573,0.00730043433109353,0.00012074910415039368,3.7812010331201376,0.7881211210901085,0.2084314254087077,-4.91982143518762,2021-10-21 15:58:17,2021-10-21 15:58:17.022,0.6373016082049099,0.8811879414757824,0.8436554323165943,1.6484985019825718,0.7297486518727392,0.5969046370385518,0.7761413893514676,0.9616695592271474,0.9619242860988568,0.8003630245799578,0.8529372989642139,1.067061368519858,0.8599083577575612,1.46843112333795,1.308935619146505,0.9615801610026592,0.8299409696476474,1.390512690262857,1.4887685755630702,1.0779410719851301,757.9120879120877,745.4212454212454,796.9963369963368,851.7948717948718,705.5311355311355,-0.421387,-0.063965,0.90979,2.018738,-14.639586999999999,17.286376999999998,66.0,53.0,13.0
669.1875540190148,66.32058664264136,,,,,,,26.65320758199883,26.72878413846148,0.0991061268912316,0.03982920396819198,661.5384615384615,79.83230769230782,0.12067674418604668,107.69230769230762,6.741573033707866,43.820224719101134,13.692307692307693,78.125,,,0.027919106048585742,0.0075024231787435705,0.00012467957378620398,3.721345141885392,0.7854313298162358,0.2110611351190884,-4.892529220123225,2021-10-21 15:58:18,2021-10-21 15:58:18.046,0.6373016082049099,0.8921301751782768,0.9786983974374622,1.6484985019825718,0.7297486518727392,0.681602171296912,0.2882691719985777,0.9616695592271474,0.9619242860988568,0.8505632337690291,0.613268612262535,1.067061368519858,0.8599083577575612,1.4209706659946018,1.318738195149447,0.9615801610026592,0.8299409696476474,1.3439391752870942,1.3925432780438969,1.0779410719851301,884.4322344322345,898.1318681318681,726.0805860805863,869.1208791208792,735.7509157509156,-0.31750500000000004,0.034789999999999995,0.948608,13.218994,-25.331421,-60.756531,73.0,40.0,33.0
669.1011235955058,66.31039116558351,,,,,,,26.65320758199883,26.72878413846148,0.09910369124663193,0.03983434886310488,661.5384615384615,79.83230769230782,0.12067674418604668,107.69230769230762,6.741573033707866,43.820224719101134,13.692307692307693,78.125,,,0.02718042992442196,0.00748128956347426,0.00012638142558067843,3.6331209604724295,0.7813139898617539,0.2150531177910896,-4.895350100321195,2021-10-21 15:58:19,2021-10-21 15:58:19.002,0.6373016082049099,0.9665528688827356,1.078070298020101,1.6484985019825718,0.7297486518727392,0.8606460667560044,0.3757083478878016,0.9616695592271474,0.9619242860988568,0.7613798488561293,0.5725034820794891,1.067061368519858,0.8599083577575612,1.464162711392749,1.281242784184116,0.9615801610026592,0.8299409696476474,1.284641500450573,1.106128833987853,1.0779410719851301,760.3296703296703,804.2490842490844,786.9230769230769,628.5714285714286,609.2307692307693,0.01593,-0.211304,0.985718,1.8392939999999998,-24.576263,-3.02063,70.0,31.0,39.0
668.5393258426966,66.26402445244207,,,,,,,26.546380668818998,26.618121980734525,0.09911761640785452,0.03970803158865362,661.5384615384615,79.83230769230782,0.12067674418604668,107.69230769230762,6.741573033707866,43.258426966292134,13.692307692307693,78.125,,,0.02662457553191689,0.0074986954014579395,0.0001293870412556348,3.550561011818188,0.7772995471369439,0.2189230221786559,-4.8930262200425885,2021-10-21 15:58:20,2021-10-21 15:58:20.000,0.6373016082049099,0.9054445157648876,0.9612535872721178,1.6484985019825718,0.7297486518727392,0.6921035292050536,0.2931411182818379,0.9616695592271474,0.9619242860988568,1.049172817775863,0.31334952784083697,1.067061368519858,0.8599083577575612,1.087995215309349,0.6126705102606357,0.9615801610026592,0.8299409696476474,0.9297185699404252,0.1880900977111525,1.0779410719851301,828.8278388278387,795.3846153846154,797.3992673992674,821.5750915750915,1178.168498168498,0.038025,-0.021057,1.0185549999999999,4.127197,-7.551575,-2.3851009999999997,57.99999999999999,31.0,26.999999999999996
668.1071737251514,66.20759832539959,,,,,,,26.44544349467523,26.51344629890109,0.09909727200839237,0.03958263664080108,661.5384615384615,79.83230769230782,0.12067674418604668,107.69230769230762,6.741573033707866,42.69662921348314,13.692307692307693,78.125,,,0.0262739215805194,0.007598145213717289,0.00013457013115691447,3.4579388576419734,0.7726115827966513,0.2234312446240036,-4.879851112301774,2021-10-21 15:58:21,2021-10-21 15:58:21.000,0.6373016082049099,0.6451558477657108,1.1168488882090108,1.6484985019825718,0.7297486518727392,0.6800453074108609,1.03239066137034,0.9616695592271474,0.9619242860988568,1.0234293340797058,1.2281815834949699,1.067061368519858,0.8599083577575612,0.9679292743100296,0.780139438742984,0.9615801610026592,0.8299409696476474,0.708853823834986,0.4135267363593397,1.0779410719851301,803.040293040293,790.5494505494507,797.8021978021977,771.6117216117218,650.7326007326008,-0.190979,-0.10199,0.99408,-0.149536,-16.015320000000006,15.402222,45.0,28.000000000000004,16.999999999999996
667.253975075204,65.89530283027754,,,,,,,26.452863847184965,26.514701997721964,0.09875595394220124,0.03964437056250364,653.8461538461537,68.42769230769235,0.1046541176470589,103.8461538461538,6.70391061452514,43.01675977653631,13.769230769230768,78.125,,,0.026733957043486817,0.007984740523335074,0.00014609743774158677,3.3481309712391947,0.7667894516513748,0.2290201483269856,-4.8302229933553535,2021-10-21 15:58:22,2021-10-21 15:58:22.001,1.5053875351472419,0.5107256645120105,1.040573670769506,1.6484985019825718,1.018566258590125,0.7413991269637971,1.188853605351112,0.9616695592271474,0.6808186181728275,0.699328176696219,1.255338950595495,1.067061368519858,1.130470947917351,1.298843892960294,1.05390521288703,0.9615801610026592,0.9857934250365314,1.042373996849004,0.629926602149082,1.0779410719851301,800.2197802197803,769.5970695970697,803.4432234432236,626.1538461538463,6.8498168498168495,-0.078796,-0.059875,1.007935,-0.059814,4.553375,7.768402,36.0,29.0,7.000000000000004
665.9464131374242,65.57173562508943,,,,,,,26.502267958298212,26.564548670972293,0.09846398198342438,0.03979639718072815,653.8461538461537,68.42769230769235,0.1046541176470589,103.84615384615392,6.741573033707866,43.258426966292134,13.692307692307693,78.125,,,0.02562623191523121,0.007951304706621098,0.00015089432219344968,3.2228964755799256,0.7597813238850095,0.2357448741037501,-4.834419249740743,2021-10-21 15:58:23,2021-10-21 15:58:23.057,1.457354745329725,1.171139498565255,0.7263483673186935,1.6484985019825718,1.18454188758368,0.775023250137993,0.5236905158382347,0.9616695592271474,0.8239031980483009,0.8558280545773146,1.044005498708801,1.067061368519858,1.1009717315582241,1.126692339292114,1.088835238872845,0.9615801610026592,0.9961769635122584,1.089276969215787,1.355546373645767,1.0779410719851301,797.8021978021977,803.4432234432236,757.5091575091576,907.3992673992674,897.3260073260074,-0.366699,-0.101562,0.9329219999999999,2.848663,3.843079,1.958923,34.0,32.0,2.0
664.5896003437904,65.558105256521,,,,,,,25.68779945852133,25.755850403615213,0.09864449462135423,0.038652123724525776,653.8461538461537,68.42769230769235,0.1046541176470589,100.00000000000013,6.145251396648043,42.45810055865922,13.769230769230768,78.125,,,0.024124411377396376,0.007748872094918191,0.00015174609434172323,3.113280369309164,0.7532986449609449,0.2419629958120674,-4.86020798234788,2021-10-21 15:58:24,2021-10-21 15:58:24.039,1.4026881442507728,1.116037004234519,0.5600072325957838,1.6484985019825718,1.2468429086149628,0.7401713381454107,0.2693534005735561,0.9616695592271474,0.8182076737759375,0.9316127626670476,0.845136806837994,1.067061368519858,1.090810234307824,1.3510225961808728,1.264996318539967,0.9615801610026592,1.009597548241128,1.446175052861257,1.6026584623692468,1.0779410719851301,808.6813186813188,786.1172161172162,801.4285714285713,867.9120879120877,976.7032967032968,-0.416504,-0.104675,0.916565,11.843262,-10.3479,-22.744446,42.0,29.0,13.000000000000005
663.9316239316238,65.66669298342087,,,,,,,25.71897619793335,25.789355117417394,0.09890580688800517,0.03873738690986357,653.8461538461537,68.42769230769235,0.1046541176470589,100.00000000000013,6.111111111111112,42.77777777777778,13.846153846153848,78.125,,,0.022818303502547838,0.007596919315462925,0.0001531948301681237,3.0036258850482973,0.7464666233355797,0.2485218372405845,-4.880012467096242,2021-10-21 15:58:25,2021-10-21 15:58:25.032,1.337351028245105,0.7624508409037734,0.9127587954015404,1.6484985019825718,0.8581104479502871,0.6441554537401442,0.4688899795028262,0.9616695592271474,0.9357021443602562,0.8584717006769965,0.6791734895816516,1.067061368519858,1.2237312442759032,1.3927662929756022,1.2951016616788271,0.9615801610026592,1.2158029874581908,1.4723983733563408,1.36831168263775,1.0779410719851301,827.2161172161173,817.948717948718,844.5421245421246,816.7399267399268,1145.934065934066,-0.472229,-0.14819300000000002,0.8737790000000001,-3.050537,8.276825,16.777954,50.0,29.0,21.000000000000004
664.1168886978943,65.83400467728731,,,,,,,25.983736788387443,26.054114522836727,0.09913014681250652,0.039125246218828506,653.8461538461537,68.42769230769235,0.1046541176470589,100.00000000000013,6.70391061452514,42.45810055865922,13.769230769230768,78.125,,,0.02147396053757081,0.007483099547027152,0.00015590634380401776,2.8696612149309013,0.7376081235274355,0.2570366563445353,-4.895108194881775,2021-10-21 15:58:26,2021-10-21 15:58:26.031,1.364171476131481,0.8048343526595556,1.346834678540745,1.6484985019825718,0.8972844252355953,0.6800009642634157,0.8961541200840528,0.9616695592271474,0.9357021443602562,0.8436441027100382,0.6660511585988564,1.067061368519858,1.22275265160751,1.0920699425290101,1.4021855587445349,0.9615801610026592,1.196725571319696,1.664277291297091,1.239214962852553,1.0779410719851301,785.3113553113553,828.8278388278387,790.1465201465203,639.047619047619,566.9230769230769,-0.34924299999999997,-0.10119600000000001,0.9306030000000001,10.766602,-47.866516,5.861816,56.99999999999999,25.0,31.999999999999996
665.1482595616674,65.72457506770301,,,,,,,25.983736788387443,26.04892390005412,0.09881191767834664,0.03906457908423412,653.8461538461537,68.42769230769235,0.1046541176470589,100.00000000000013,6.70391061452514,42.45810055865922,13.769230769230768,78.125,,,0.020180892482398103,0.0072921865227746074,0.00015528423306485845,2.7674679493414094,0.7304411161956859,0.26393841936616225,-4.920951843395958,2021-10-21 15:58:27,2021-10-21 15:58:27.017,1.364171476131481,0.6758353264340244,1.116157284278312,1.6484985019825718,0.8972844252355953,0.4770904404051977,0.6824816590915871,0.9616695592271474,0.9357021443602562,0.5681169748014978,0.3940439786690826,1.067061368519858,1.22275265160751,1.3791434482742229,1.342088616368692,0.9615801610026592,1.196725571319696,1.554023630583643,1.4268618414839058,1.0779410719851301,798.6080586080586,796.1904761904763,788.9377289377289,751.0622710622711,664.4322344322344,-0.26532,-0.063965,0.9682620000000001,5.166473000000001,10.175934,-4.366455,64.0,25.0,39.0
666.3353500432153,65.27595567348786,,,,,,,26.005664529818922,26.07124459569325,0.0979626184761988,0.039027892679162714,653.8461538461537,68.42769230769235,0.1046541176470589,98.0769230769232,6.741573033707866,42.69662921348314,13.692307692307693,78.125,,,0.01842401243816603,0.006955207968169322,0.00015113978467958133,2.648952054702601,0.7216510969810019,0.2724289009685462,-4.9682645520883915,2021-10-21 15:58:28,2021-10-21 15:58:28.037,1.364171476131481,0.63743841015389,1.3530594879719409,1.6484985019825718,0.8972844252355953,0.1897358604118461,0.8249961676349032,0.9616695592271474,0.9357021443602562,0.5061913610294182,0.6592879466395937,1.067061368519858,1.22275265160751,1.5237467107079232,1.3211531602573852,0.9615801610026592,1.196725571319696,1.428428608267453,1.1480797792369308,1.0779410719851301,745.0183150183151,788.9377289377289,788.9377289377289,629.3772893772892,676.1172161172161,-0.443787,-0.120422,0.8845209999999999,0.5757140000000001,5.592651,-3.431854,69.0,27.0,42.0
666.6953158573269,64.81026163224568,,,,,,,26.041244206843036,26.113408885631625,0.09721121491442293,0.0390601877461156,653.8461538461537,68.42769230769235,0.1046541176470589,92.30769230769226,6.70391061452514,42.45810055865922,13.769230769230768,78.125,,,0.017334204983939772,0.006762391362765168,0.00014852879748000503,2.5633247255378824,0.7149563007348421,0.2789175688947553,-4.9963786995943735,2021-10-21 15:58:29,2021-10-21 15:58:29.055,1.364171476131481,0.8389080362699722,1.212029637775674,1.6484985019825718,0.8972844252355953,0.37622688885188105,0.836551712892938,0.9616695592271474,0.9357021443602562,0.2891248114795502,0.9103254781604206,1.067061368519858,1.22275265160751,1.371095179127604,1.165607576287674,0.9615801610026592,1.196725571319696,1.4815807452726752,1.152795084247612,1.0779410719851301,811.098901098901,786.1172161172162,782.4908424908424,720.8424908424909,643.4798534798535,-0.47936999999999996,-0.103577,0.8795780000000001,5.936584,-16.291961999999998,9.136658,71.0,26.0,45.0
667.0267934312877,64.84074140961172,,,,,,,26.031361833054923,26.105173435760012,0.09720860098596794,0.03902596130980829,657.6923076923076,74.13,0.1127122807017544,92.30769230769226,6.741573033707866,42.13483146067416,13.692307692307693,78.125,,,0.01654076604289846,0.00665136713666468,0.00014699007010364183,2.4868219875760467,0.7087141134633074,0.28498787488770144,-5.01293286098311,2021-10-21 15:58:30,2021-10-21 15:58:30.041,1.366370918404935,0.9243211187460841,1.3900475076769951,0.9371805501165842,0.8972501432658401,0.5041515783299195,0.7652379421530148,0.7808415269761858,0.8589437156726695,0.2783191798256439,0.7422440019675157,1.3330815856032119,1.1614998364860891,1.3823581177186728,1.275079461476403,1.1815731274421921,1.260970912398019,1.5009310181775781,1.3648122686522128,1.1001844188606351,800.6227106227108,787.3260073260074,780.4761904761905,888.0586080586081,1057.692307692308,-0.395813,-0.072876,0.9295040000000001,2.280426,-2.803802,-3.282318,70.0,26.0,44.0
666.9961323592609,64.65450788756368,,,,,,,25.752422955505565,25.82415838461717,0.09693385726071818,0.03860955364825813,653.8461538461537,68.42769230769235,0.1046541176470589,92.30769230769226,6.70391061452514,41.34078212290503,13.769230769230768,78.125,,,0.015971328102038513,0.006641689093315292,0.0001472906891534519,2.404708783811228,0.7017184557907522,0.2918101603465669,-5.014388966319902,2021-10-21 15:58:31,2021-10-21 15:58:31.012,1.1698481595772299,1.0272919512865741,1.051283693347139,1.203622448287632,0.7340777834535491,0.6524190666542156,0.7773557320729275,0.7705944052880649,0.8929526465354055,0.7836009062995346,0.9017790390649032,1.2887209977627128,1.301919064030053,1.369340646540929,1.4761068950081608,1.144103403053616,1.1382025842241008,1.3896343049792872,1.337672104059755,1.0216487618919108,794.1758241758242,774.4322344322345,807.4725274725273,804.6520146520148,681.3553113553113,-0.22778299999999999,-0.10968,0.9765010000000001,18.460236,-41.563568,-30.939026000000002,67.0,29.0,38.0
666.8107173725151,64.80462660243975,,,,,,,25.79916467000258,25.872023562039352,0.09718594034870094,0.03869038693868177,653.8461538461537,68.42769230769235,0.1046541176470589,92.30769230769226,6.741573033707866,41.57303370786517,13.692307692307693,78.125,,,0.015744173525506232,0.006703075562541726,0.00014863232663583234,2.348798455068621,0.6967718247660379,0.2966503248767173,-5.00518881872614,2021-10-21 15:58:32,2021-10-21 15:58:32.007,0.9888569420855228,1.3175843241117742,1.016277657918073,1.404965984598304,0.7343323757352959,0.7507025344400631,0.8032407986233409,0.7390854567363825,0.8003310612589267,0.8632669156355695,0.9432421336620735,0.9057575183875302,1.4133255116178185,1.254968603197253,1.329534890235479,1.110905387013297,1.231150493205535,1.3799481657906851,1.316191615325458,0.9394263566466332,775.2380952380953,788.5347985347986,806.6666666666667,864.6886446886447,747.8388278388278,0.091736,-0.023499000000000003,1.012329,3.917847,-5.413208,5.166473000000001,60.0,27.0,33.0
666.8672110012891,64.64218421542306,,,,,,,25.823322014084393,25.896021459279787,0.09693411694115832,0.03872333440312823,653.8461538461537,68.42769230769235,0.1046541176470589,92.30769230769226,6.70391061452514,41.89944134078213,13.769230769230768,78.125,,,0.015618659994650213,0.006790934431612339,0.00015035711544101685,2.299927963071489,0.6923179762056705,0.30101724372319,-4.992166728085971,2021-10-21 15:58:33,2021-10-21 15:58:33.033,0.991342062989502,1.0751286134976792,1.0602723015603959,1.404965984598304,0.8045453765532027,0.8307084851967816,0.5415077576499807,0.7390854567363825,0.7917689795944026,1.08124390021475,0.6884549265411005,0.9057575183875302,1.4328191053717156,1.246357135871323,1.2311240339919658,1.110905387013297,1.256137144057124,1.036387602441285,1.335572588421938,0.9394263566466332,803.040293040293,772.8205128205127,824.3956043956044,871.1355311355313,875.9706959706958,-0.21423299999999998,-0.112732,0.970276,4.673004,13.675079,-18.624725,57.99999999999999,30.0,27.999999999999996
666.9835782195332,64.85729273831312,,,,,,,25.604058532297373,25.672218393889914,0.0972397145240745,0.03838783947371785,653.8461538461537,68.42769230769235,0.1046541176470589,92.30769230769226,6.741573033707866,41.01123595505618,13.692307692307693,78.125,,,0.015584491258111875,0.006938768280917988,0.0001531602433454272,2.2460025507654042,0.6872553695722528,0.30599046708030075,-4.970631001350801,2021-10-21 15:58:34,2021-10-21 15:58:34.005,0.991342062989502,0.7628560647824868,0.7205872470216541,1.404965984598304,0.8045453765532027,0.7487166062152258,0.01621761983741779,0.7390854567363825,0.7917689795944026,1.192300783495768,0.4982879005213308,0.9057575183875302,1.4328191053717156,1.285972046415733,1.258551111905677,1.110905387013297,1.256137144057124,1.360336472208844,1.5304758774682368,0.9394263566466332,800.6227106227108,765.1648351648352,778.8644688644687,821.1721611721613,1063.333333333333,-0.394897,-0.065979,0.9059450000000001,6.265564,-7.387085000000001,3.865509,53.0,33.0,20.0
667.5977653631285,64.6314673180149,,,,,,,25.51901249402691,25.58479641978792,0.09681198870229847,0.038225131685613534,661.5384615384615,68.42769230769235,0.10343720930232564,92.30769230769226,6.70391061452514,40.782122905027926,13.769230769230768,78.125,,,0.015397603125269325,0.006979811259249859,0.00015367482715245901,2.20601998440344,0.6833936424739288,0.309785789478573,-4.964733402795533,2021-10-21 15:58:35,2021-10-21 15:58:35.000,0.991342062989502,0.6794933220822224,0.8053270877483747,1.404965984598304,0.8045453765532027,0.8420918064975624,0.426297911722446,0.7390854567363825,0.7917689795944026,1.0898552892660769,0.5850392136660936,0.9057575183875302,1.4328191053717156,1.290503007136692,1.468903151592702,1.110905387013297,1.256137144057124,1.55665586178769,1.5726969591941071,0.9394263566466332,818.7545787545787,801.8315018315019,826.007326007326,911.4285714285713,863.0769230769231,-0.626221,-0.185791,0.775696,-5.6748959999999995,-0.530853,9.069366,52.0,38.0,14.0
668.6257562662057,64.42828729934843,,,,,,,25.486277929869452,25.55408297310929,0.09635926629439777,0.038117403780841455,661.5384615384615,68.42769230769235,0.10343720930232564,92.30769230769226,6.741573033707866,40.44943820224719,14.833333333333336,78.125,,,0.015170788110329,0.00699925629130761,0.0001539210317712837,2.1674857269006758,0.6795740727866324,0.3135310486027361,-4.961951379670041,2021-10-21 15:58:36,2021-10-21 15:58:36.016,0.991342062989502,0.6233937828342831,0.7802444989058248,1.404965984598304,0.8045453765532027,0.9221845796372704,0.411715789580876,0.7390854567363825,0.7917689795944026,1.0512203900615942,0.5259811499994893,0.9057575183875302,1.4328191053717156,1.394513249249562,1.4583743938301408,1.110905387013297,1.256137144057124,1.614799548717857,1.586947920475238,0.9394263566466332,774.4322344322345,751.4652014652015,864.2857142857142,811.9047619047618,766.7765567765567,-0.600647,-0.089783,0.7849119999999999,8.650665,-26.004333,12.635803,55.00000000000001,46.0,9.000000000000009
668.7986171132237,64.33622308823689,,,,,,,25.334983679772872,25.406706595402326,0.09619670472097452,0.03788133382979738,661.5384615384615,68.42769230769235,0.10343720930232564,92.30769230769226,6.179775280898876,40.44943820224719,14.833333333333336,78.125,,,0.013916247224647058,0.006566729048086252,0.00014457334540406334,2.1192053338492287,0.6746437401566492,0.31834750950312896,-5.02573943224286,2021-10-21 15:58:37,2021-10-21 15:58:37.028,0.991342062989502,0.6233937828342831,0.7802444989058248,1.404965984598304,0.8045453765532027,0.9221845796372704,0.411715789580876,0.7390854567363825,0.7917689795944026,1.0512203900615942,0.5259811499994893,0.9057575183875302,1.4328191053717156,1.394513249249562,1.4583743938301408,1.110905387013297,1.256137144057124,1.614799548717857,1.586947920475238,0.9394263566466332,761.1355311355313,861.0622710622711,783.6996336996338,808.2783882783882,989.5970695970695,-0.350525,-0.088867,0.9356690000000001,7.461853,-6.7590330000000005,-8.067474,61.0,46.0,15.0
668.5393258426966,64.39627228534732,,,,,,,25.433755920560717,25.504083962443808,0.09632383585539347,0.03804376936016645,661.5384615384615,68.42769230769235,0.10343720930232564,92.30769230769226,6.179775280898876,41.01123595505618,14.833333333333336,70.3125,,,0.012910374808209377,0.006210559617903584,0.0001375012186056416,2.078778017200221,0.6703750525941548,0.3224851557248242,-5.0815042714924745,2021-10-21 15:58:38,2021-10-21 15:58:38.003,0.991342062989502,0.6233937828342831,0.7802444989058248,1.404965984598304,0.8045453765532027,0.9221845796372704,0.411715789580876,0.7390854567363825,0.7917689795944026,1.0512203900615942,0.5259811499994893,0.9057575183875302,1.4328191053717156,1.394513249249562,1.4583743938301408,1.110905387013297,1.256137144057124,1.614799548717857,1.586947920475238,0.9394263566466332,877.1794871794873,782.0879120879123,818.7545787545787,978.3150183150183,822.7838827838829,-0.619446,-0.179871,0.769714,-8.478699,9.24881,6.639403999999999,68.0,45.0,23.0
668.0275032230339,64.32648329890338,,,,,,,25.125176941109352,25.18975266160417,0.09629316605760577,0.037610991792834635,661.5384615384615,68.42769230769235,0.10343720930232564,92.30769230769226,6.145251396648043,40.22346368715085,14.916666666666664,70.3125,,,0.011988323484903814,0.0058872002338583975,0.00013171328556588522,2.0363369698140557,0.6657503026156861,0.3269352334532716,-5.13497473662869,2021-10-21 15:58:39,2021-10-21 15:58:39.039,0.991342062989502,0.6233937828342831,0.7802444989058248,1.404965984598304,0.8045453765532027,0.9221845796372704,0.411715789580876,0.7390854567363825,0.7917689795944026,1.0512203900615942,0.5259811499994893,0.9057575183875302,1.4328191053717156,1.394513249249562,1.4583743938301408,1.110905387013297,1.256137144057124,1.614799548717857,1.586947920475238,0.9394263566466332,787.3260073260074,813.5164835164835,800.6227106227108,730.5128205128206,727.2893772893773,-0.660583,-0.207947,0.774231,12.134857,-14.519957999999999,-3.656158,73.0,43.0,30.0
666.8971477960242,64.02938363662264,,,,,,,25.03632903477382,25.09066718267886,0.09601088241002123,0.03754151463612404,653.8461538461537,68.42769230769235,0.1046541176470589,92.30769230769226,6.179775280898876,39.325842696629216,14.833333333333336,70.3125,,,0.011101431477663924,0.005573457549541513,0.00012661712887298302,1.9918392450261249,0.6607402559351898,0.33172368582712786,-5.189739672644895,2021-10-21 15:58:40,2021-10-21 15:58:40.010,1.12261682706296,-0.06653157871240435,0.7802444989058248,1.404965984598304,0.3049058968077544,-0.05724194334192849,0.411715789580876,0.7390854567363825,0.8884614258316932,0.5566616205849002,0.5259811499994893,0.9057575183875302,1.448026922058157,1.382699102436775,1.4583743938301408,1.110905387013297,1.390432403936917,1.6988278013585099,1.586947920475238,0.9394263566466332,785.3113553113553,811.098901098901,770.4029304029305,772.4175824175826,962.6007326007326,-0.661682,-0.21838400000000002,0.739136,10.220794999999999,-3.3645629999999995,-5.959015,76.0,43.0,33.0
665.7069187795445,63.428295303437274,,,,,,,24.865839072826233,24.9237782674302,0.09527960956109904,0.037352532129924884,653.8461538461537,68.42769230769235,0.1046541176470589,92.30769230769226,6.145251396648043,38.54748603351955,14.916666666666664,70.3125,,,0.010177977854449356,0.005263610760556804,0.00012268785161818042,1.933649412437308,0.6539319624831109,0.338185380595363,-5.24693803135631,2021-10-21 15:58:41,2021-10-21 15:58:41.019,1.141674689710457,0.1735702866417154,0.7802444989058248,1.404965984598304,0.4193396295376959,-0.058420121884203036,0.411715789580876,0.7390854567363825,0.9267893877933528,0.5566616205849002,0.5259811499994893,0.9057575183875302,1.4562367720336509,1.3406255753206888,1.4583743938301408,1.110905387013297,1.40753005250597,1.645564214988319,1.586947920475238,0.9394263566466332,794.981684981685,840.5128205128206,847.3626373626372,672.4908424908425,0.0,-0.34619099999999997,-0.224854,0.908691,2.893524,-0.800018,18.841553,76.0,41.0,35.0
664.9145299145299,62.96773746699915,,,,,,,24.849552268113168,24.911952044648682,0.09470049853639566,0.03737255113271086,653.8461538461537,68.42769230769235,0.1046541176470589,92.30769230769226,6.111111111111112,38.888888888888886,12.857142857142858,93.75,,,0.009410282613596593,0.0049837352288806345,0.00011919015546103408,1.8881987468082604,0.6483943877145157,0.34339308232808496,-5.301575623129508,2021-10-21 15:58:42,2021-10-21 15:58:42.019,1.2035070586325272,0.3156918979891343,0.7802444989058248,1.404965984598304,0.4152867013438415,-0.06794404562777673,0.411715789580876,0.7390854567363825,0.9267893877933528,0.5183184560561223,0.5259811499994893,0.9057575183875302,1.5183370896585449,1.247680210935343,1.4583743938301408,1.110905387013297,1.4499881471466691,1.5827270995018519,1.586947920475238,0.9394263566466332,796.1904761904763,779.2673992673992,846.959706959707,817.1428571428571,303.003663003663,-0.763123,-0.206238,0.624695,-23.664092999999998,0.149536,46.303864000000004,72.0,51.0,21.0
663.7730984099699,62.62251167964615,,,,,,,24.939258701082863,25.001159703360713,0.09434325047166683,0.037571963613505004,653.8461538461537,68.42769230769235,0.1046541176470589,84.61538461538453,6.145251396648043,39.10614525139665,12.785714285714285,93.75,,,0.008526900568149259,0.004642192449038154,0.0001154106072759926,1.8368261681861129,0.6418682104498791,0.3494441779886724,-5.3725685137733725,2021-10-21 15:58:43,2021-10-21 15:58:43.061,1.2035070586325272,0.3156918979891343,0.7802444989058248,1.404965984598304,0.4152867013438415,-0.06794404562777673,0.411715789580876,0.7390854567363825,0.9267893877933528,0.5183184560561223,0.5259811499994893,0.9057575183875302,1.5183370896585449,1.247680210935343,1.4583743938301408,1.110905387013297,1.4499881471466691,1.5827270995018519,1.586947920475238,0.9394263566466332,791.7582417582418,850.9890109890109,790.952380952381,643.8827838827839,263.919413919414,-0.734924,-0.11370799999999999,0.69342,8.830109,-14.512482,-8.209534,72.0,52.0,20.0
662.8205128205128,62.39996456992576,,,,,,,24.869498400235504,24.928496074070953,0.09414308000878548,0.03752071325374022,653.8461538461537,68.42769230769235,0.1046541176470589,84.61538461538453,6.111111111111112,38.888888888888886,12.857142857142858,93.75,,,0.007914262875076763,0.004388765130175786,0.00011314691962614562,1.8033006188143328,0.6374155424645875,0.35347159304125736,-5.428707382996652,2021-10-21 15:58:44,2021-10-21 15:58:44.032,1.2035070586325272,0.3156918979891343,0.7802444989058248,1.404965984598304,0.4152867013438415,-0.06794404562777673,0.411715789580876,0.7390854567363825,0.9267893877933528,0.5183184560561223,0.5259811499994893,0.9057575183875302,1.5183370896585449,1.247680210935343,1.4583743938301408,1.110905387013297,1.4499881471466691,1.5827270995018519,1.586947920475238,0.9394263566466332,815.1282051282053,801.8315018315019,795.7875457875458,909.4139194139194,1632.271062271062,-0.70575,-0.133972,0.700806,4.9646,-13.891907000000002,-2.048645,71.0,55.00000000000001,15.999999999999993
662.2649572649573,62.09831933504612,,,,,,,24.43368694413603,24.501618410670037,0.09376657885010513,0.03689412624977628,653.8461538461537,68.42769230769235,0.1046541176470589,84.61538461538453,5.5555555555555545,38.888888888888886,12.857142857142858,93.75,,,0.007388974811954425,0.004151552785663553,0.00011137112588229153,1.7798099153335056,0.6341434119275242,0.3562983925778932,-5.484272849501747,2021-10-21 15:58:45,2021-10-21 15:58:45.018,1.2035070586325272,0.7742579842948206,0.5511117855543546,1.404965984598304,0.4152867013438415,0.5040463453810997,0.5646116225057958,0.7390854567363825,0.9267893877933528,0.8837729328923092,0.4509330373519286,0.9057575183875302,1.5183370896585449,1.149175378252292,1.421052530961586,1.110905387013297,1.4499881471466691,1.291350413616107,1.384416813390041,0.9394263566466332,818.7545787545787,813.1135531135533,791.7582417582418,777.2527472527472,1019.0109890109892,-0.296021,0.00061,0.945435,0.485992,-3.588867,-4.015045,70.0,56.00000000000001,13.999999999999993
661.8376068376067,62.13379782398034,,,,,,,24.37951018801859,24.447744119873093,0.09388073023058953,0.036836090811624915,653.8461538461537,68.42769230769235,0.1046541176470589,84.61538461538453,5.5555555555555545,38.888888888888886,12.857142857142858,93.75,,,0.006980855967626867,0.003946186862970475,0.00011043250675131867,1.7690130270141484,0.6324685450489763,0.3575262224702193,-5.5350055174673285,2021-10-21 15:58:46,2021-10-21 15:58:46.033,1.2035070586325272,0.6717852118844291,1.033943248951775,1.404965984598304,0.4152867013438415,0.6737569919112433,0.7876638162980114,0.7390854567363825,0.9267893877933528,0.9124386229694126,0.7820921038023241,0.9057575183875302,1.5183370896585449,1.046111520734437,0.8981845543968935,1.110905387013297,1.4499881471466691,1.081478824953029,0.8492662881034422,0.9394263566466332,813.5164835164835,791.3553113553114,809.8901098901099,697.0695970695973,773.6263736263736,-0.204651,-0.055237,1.011841,6.160889,-19.417267000000002,5.091705,63.0,55.00000000000001,7.999999999999992
661.2834679133023,62.276031591401996,,,,,,,24.365721062983788,24.43308564014686,0.09417448736154814,0.03684610646606739,653.8461538461537,68.42769230769235,0.1046541176470589,84.61538461538453,5.524861878453039,39.226519337016576,12.928571428571427,54.6875,,,0.006643538146252772,0.0037370164771283842,0.00011064958314421636,1.7777652806491857,0.6332483874559024,0.3562047219330661,-5.58946771930243,2021-10-21 15:58:47,2021-10-21 15:58:47.000,1.6378215630760031,1.0994609522371719,1.8673774946798518,1.404965984598304,0.8624633535981527,0.7452096380461032,1.1112192295629322,0.7390854567363825,1.0004443115222479,0.7478954704007904,0.962569936240756,0.9057575183875302,1.1662763794150772,1.165866784111675,0.8423930605707084,1.110905387013297,1.067952335730585,1.1497010032455601,0.6951245743616608,0.9394263566466332,742.1978021978023,789.7435897435898,783.2967032967032,718.4249084249085,645.8974358974359,-0.166748,-0.064819,0.995239,6.587067,-6.317901999999999,1.278534,52.0,49.0,3.0
661.4529914529915,62.40785155038823,,,,,,,24.372729626021773,24.441058471530443,0.094349639893984,0.0368472588996582,653.8461538461537,68.42769230769235,0.1046541176470589,84.61538461538453,5.5555555555555545,38.888888888888886,12.857142857142858,54.6875,,,0.006509392928123386,0.0036044044062135006,0.00011175145399041248,1.80595521326688,0.6365812791929572,0.35249006980711023,-5.625598735150055,2021-10-21 15:58:48,2021-10-21 15:58:48.024,1.975085376947741,1.690874969786508,2.0601340636032717,2.383879767522137,0.6252174704081433,0.8843463742452622,0.9227910064645723,0.19964446974016506,1.121719858680573,1.0360255215692311,1.071771987986684,0.8253498075909061,1.083432805475161,1.1428414171759542,1.164904418182465,1.101985402858894,0.954931714650431,1.125774479035473,0.7804167936495618,1.130668926191623,800.6227106227108,773.2234432234433,782.8937728937732,904.981684981685,928.7545787545787,-0.170593,-0.081055,0.9931639999999999,3.783264,-3.865509,1.143951,37.0,45.0,-8.0
661.5811965811965,62.304520773358604,,,,,,,24.386288864692894,24.45465576573054,0.09417516866459474,0.03686061361887565,653.8461538461537,68.42769230769235,0.1046541176470589,84.61538461538453,5.5555555555555545,38.888888888888886,13.846153846153848,54.6875,,,0.006521012452792108,0.003483029695373169,0.00011446866021952325,1.8722241907539792,0.6444636544132967,0.3442235484382666,-5.659852761831238,2021-10-21 15:58:49,2021-10-21 15:58:49.000,1.456750761639808,1.4451696792241342,1.428010385577543,2.344469928589882,0.9144025214307256,0.8089141769594647,0.8887645533125155,0.1698404392662431,1.0515983353946559,1.047630859463995,1.1605188282393368,0.7828191331074089,1.087638198685573,1.1382531181466369,1.25435927168283,1.0141491860899972,0.8440244697235344,1.0580358594314259,0.9304724670170764,1.074630557786187,800.6227106227108,822.3809523809523,782.0879120879123,825.2014652014653,745.8241758241759,-0.175293,-0.080261,0.99054,3.74588,-5.00946,0.7102970000000001,27.0,41.0,-14.0
661.6666666666666,62.2513234013091,,,,,,,24.332006573973786,24.40022112551329,0.0940826046367392,0.03677381346192512,653.8461538461537,68.42769230769235,0.1046541176470589,84.61538461538453,5.5555555555555545,38.333333333333336,13.846153846153848,54.6875,,,0.006667494096673501,0.0034152083374198172,0.00011754665539238521,1.9522949811345272,0.6536599291037192,0.334816170414914,-5.679516781255107,2021-10-21 15:58:50,2021-10-21 15:58:50.030,0.3867763824677819,1.0523717562391908,1.255949337732682,2.344469928589882,0.6886902666214925,0.49100855664476095,0.4458671448792473,0.1698404392662431,0.9027431115775374,0.6316514757305273,0.8879663373249604,0.7828191331074089,1.030845719950947,1.142025989535843,1.1822627498545868,1.0141491860899972,0.8175983297733425,0.8631638174631493,0.9311194421736092,1.074630557786187,800.6227106227108,786.1172161172162,797.8021978021977,887.2527472527472,1070.586080586081,-0.16680899999999999,-0.080261,0.992065,3.6187739999999997,-5.345917,0.583191,25.0,45.0,-20.0
661.9230769230769,62.14396458867788,,,,,,,24.298018561051236,24.36480388184507,0.09388396742043142,0.03670822095219826,653.8461538461537,68.42769230769235,0.1046541176470589,84.61538461538453,5.5555555555555545,37.77777777777778,13.846153846153848,54.6875,,,0.006976642864825786,0.0033429416274988123,0.00012171500895025351,2.086977172271389,0.6681776405297022,0.3201652847033694,-5.700904132809751,2021-10-21 15:58:51,2021-10-21 15:58:51.023,0.3446961379827111,0.8646204668112829,1.127567298382792,2.344469928589882,0.4897380227547023,0.3044578238455996,0.211118535801089,0.1698404392662431,0.8047032178472188,0.5863016074146981,0.8883295849149804,0.7828191331074089,0.8466568846090057,0.8820698279277516,1.088530966088355,1.0141491860899972,0.8695249066995324,0.6699705919096611,0.9206704728931318,1.074630557786187,790.1465201465203,804.6520146520148,792.1611721611722,846.1538461538463,744.6153846153846,-0.15850799999999998,-0.082764,0.995972,3.917847,-4.665527,0.8374020000000001,25.0,53.0,-28.0
662.6987537602063,62.08949323866445,,,,,,,24.47507548219314,24.541667986003986,0.09369188169792632,0.03693243022311358,653.8461538461537,68.42769230769235,0.1046541176470589,84.61538461538453,5.58659217877095,37.988826815642454,13.769230769230768,54.6875,,,0.007391546256874688,0.0033295458081617803,0.00012659667185775718,2.219986353320518,0.6813936531691952,0.3069359647864541,-5.704919378237696,2021-10-21 15:58:52,2021-10-21 15:58:52.061,0.4209347868541811,0.3260404965189804,0.1606537249293867,2.344469928589882,0.3762163811177271,-0.1039881261346406,-0.1289004226062321,0.1698404392662431,0.6980835035790384,0.4447038209294092,0.4327546429171422,0.7828191331074089,0.9284789443117392,0.7886977067586237,1.10653696492805,1.0141491860899972,0.8623576025029219,0.7433354268005441,0.8951221865426083,1.074630557786187,831.2454212454213,784.9084249084249,782.0879120879123,783.6996336996338,865.4945054945056,-0.213562,-0.068176,0.9857790000000001,7.14035,14.190979,-3.7159730000000004,34.0,41.0,-7.0
663.0769230769231,61.89945685478235,,,,,,,24.311619468111857,24.376005863382264,0.09335184908493856,0.03666485534634039,653.8461538461537,68.42769230769235,0.1046541176470589,84.61538461538453,5.5555555555555545,37.22222222222222,13.846153846153848,54.6875,,,0.007878139677397679,0.003320949306914137,0.00013150489769939467,2.372255325004685,0.6952980363990672,0.2930957848720158,-5.7075046011080826,2021-10-21 15:58:53,2021-10-21 15:58:53.019,0.4775965798949915,1.113488166833924,1.184922051329282,2.344469928589882,0.3249556966184413,0.4820734078836416,0.7872136466189235,0.1698404392662431,0.5084613749584151,0.6247215561903701,0.7200130816568694,0.7828191331074089,0.7003040606652359,1.078366501539078,1.2087434055788808,1.0141491860899972,0.8184928515122951,0.9568158571119348,0.9758676455763938,1.074630557786187,799.8168498168499,820.7692307692308,830.8424908424909,722.8571428571429,801.025641025641,-0.7033689999999999,-0.098267,0.7150880000000001,2.5421139999999998,1.069183,2.519684,41.0,37.0,4.0
663.3760683760684,61.65847712993462,,,,,,,24.55514761115907,24.623422780892163,0.09294649003675001,0.03701542576184515,653.8461538461537,62.725384615384634,0.09593294117647062,84.61538461538453,5.5555555555555545,37.77777777777778,15.0,93.75,,,0.008593511158607785,0.0033274316822989587,0.00013808407998623198,2.582625874581574,0.7126206131706215,0.2759287050378822,-5.705554539145759,2021-10-21 15:58:54,2021-10-21 15:58:54.022,0.4775965798949915,1.37095983314302,1.502984569986366,2.344469928589882,0.3249556966184413,0.8313161724461027,1.096430971620835,0.1698404392662431,0.5084613749584151,1.1511136864971407,0.6959422351048525,0.7828191331074089,0.7003040606652359,1.30066322321681,1.357779548218066,1.0141491860899972,0.8184928515122951,1.2422875362641168,1.1355894031858849,1.074630557786187,799.0109890109891,765.9706959706958,835.2747252747251,1137.069597069597,1156.0073260073261,-0.676941,-0.078186,0.723022,1.2486270000000002,-10.67688,8.927307,44.0,38.0,6.0
663.9449935539321,61.46408763812151,,,,,,,24.624026140880023,24.692879104323165,0.09257406597663996,0.0370874490807947,653.8461538461537,57.02307692307691,0.08721176470588234,84.61538461538453,5.58659217877095,37.988826815642454,14.916666666666664,93.75,,,0.009255816443723752,0.0033528250122739182,0.00014392243074137998,2.7606023009970238,0.7258004371457065,0.26291379851548163,-5.697952001266136,2021-10-21 15:58:55,2021-10-21 15:58:55.005,0.4775965798949915,1.508150317609404,1.502984569986366,2.344469928589882,0.3249556966184413,1.014147501666092,1.096430971620835,0.1698404392662431,0.5084613749584151,1.220728481978879,0.6959422351048525,0.7828191331074089,0.7003040606652359,1.24311707761137,1.357779548218066,1.0141491860899972,0.8184928515122951,1.127312361773499,1.1355894031858849,1.074630557786187,823.1868131868132,823.5897435897436,732.5274725274727,430.73260073260076,0.0,-0.649963,-0.055054,0.765686,4.650574,-5.981445,-1.9664,42.0,44.0,-2.0
664.1452991452992,61.13514098738612,,,,,,,24.615653200081763,24.681654298624323,0.09205085252588864,0.03706365644951504,653.8461538461537,57.023076923076744,0.08721176470588207,78.84615384615381,5.5555555555555545,38.333333333333336,13.846153846153848,93.75,,,0.009938959228810608,0.00337930055349959,0.00014959407129949454,2.941129109844302,0.7379764687709868,0.2509160397960407,-5.690086527736032,2021-10-21 15:58:56,2021-10-21 15:58:56.059,1.466664929203923,1.451203294237133,1.502984569986366,2.344469928589882,1.047497536535645,1.133992026052749,1.096430971620835,0.1698404392662431,0.8276328995631144,1.1159499435661568,0.6959422351048525,0.7828191331074089,1.2411936640089791,1.162651461005116,1.357779548218066,1.0141491860899972,1.0782267302689392,1.020387614319294,1.1355894031858849,1.074630557786187,789.7435897435898,791.3553113553114,829.2307692307692,925.5311355311355,830.4395604395604,-0.05658,-0.045226999999999996,1.005981,7.701111,-11.880646,3.977661,34.0,55.00000000000001,-21.000000000000007
665.0623119896862,60.6472736442072,,,,,,,24.62402614088003,24.68801087437703,0.09119036299435912,0.037025141399475214,653.8461538461537,57.023076923076744,0.08721176470588207,76.9230769230769,5.58659217877095,37.988826815642454,13.769230769230768,93.75,,,0.010680186310556004,0.003424526139182399,0.00015586249289038638,3.1187340602708566,0.7489309760316875,0.2401394160445485,-5.676792170363068,2021-10-21 15:58:57,2021-10-21 15:58:57.011,1.5488320984713182,1.3328974843046222,1.502984569986366,2.344469928589882,1.1919741455991928,0.7181463232411274,1.096430971620835,0.1698404392662431,0.7747886608967111,0.7624126432952915,0.6959422351048525,0.7828191331074089,1.258965388157906,1.061762441725779,1.357779548218066,1.0141491860899972,1.13701442009268,0.8530523719353199,1.1355894031858849,1.074630557786187,827.2161172161173,859.047619047619,835.2747252747251,994.0293040293041,1062.930402930403,-0.433655,-0.172546,0.8901370000000001,3.6412050000000002,-0.13458299999999998,4.201965,30.0,65.0,-35.0
666.3785652549698,59.72873549061742,,,,,,,24.666396512374746,24.7265414737529,0.08963183782444144,0.03701559113465315,653.8461538461537,57.023076923076744,0.08721176470588207,76.9230769230769,5.617977528089887,38.20224719101123,13.692307692307693,78.125,,,0.011639206296075622,0.003498507186216318,0.00016415069441025863,3.326906499415706,0.7606397600755636,0.2286327434237038,-5.655418919695448,2021-10-21 15:58:58,2021-10-21 15:58:58.039,1.5488320984713182,1.2254134123980291,1.502984569986366,2.344469928589882,1.1919741455991928,0.6740674507597402,1.096430971620835,0.1698404392662431,0.7747886608967111,0.5523886635495568,0.6959422351048525,0.7828191331074089,1.258965388157906,1.030774054831947,1.357779548218066,1.0141491860899972,1.13701442009268,0.7911801420391076,1.1355894031858849,1.074630557786187,798.6080586080586,819.5604395604396,815.5311355311355,689.4139194139194,533.0769230769231,-0.494019,-0.143066,0.862793,2.945862,-3.9701839999999997,1.861725,32.0,73.0,-41.0
667.934312878133,58.88153935548192,,,,,,,24.393831278547196,24.457442651160797,0.08815468560338068,0.03652130278115826,657.6923076923076,62.72538461538438,0.09537192982456104,76.9230769230769,5.056179775280898,38.20224719101123,13.692307692307693,78.125,,,0.01230924768419148,0.0035426718046122118,0.00016968270805783322,3.4745661927153524,0.7682906823515281,0.2211184475236932,-5.642874089449192,2021-10-21 15:58:59,2021-10-21 15:58:59.028,0.3329794318704316,1.2254134123980291,1.502984569986366,2.344469928589882,0.5615517886301502,0.6740674507597402,1.096430971620835,0.1698404392662431,1.294790157959645,0.5523886635495568,0.6959422351048525,0.7828191331074089,1.4256455204533631,1.030774054831947,1.357779548218066,1.0141491860899972,1.311396303590525,0.7911801420391076,1.1355894031858849,1.074630557786187,800.6227106227108,802.6373626373628,780.0732600732601,836.8864468864467,824.3956043956044,-0.519043,-0.137756,0.8568120000000001,4.209442,-4.396362,3.8056949999999996,43.0,74.0,-31.0
