HRV_MeanNN,HRV_SDNN,HRV_SDANN1,HRV_SDNNI1,HRV_SDANN2,HRV_SDNNI2,HRV_SDANN5,HRV_SDNNI5,HRV_RMSSD,HRV_SDSD,HRV_CVNN,HRV_CVSD,HRV_MedianNN,HRV_MadNN,HRV_MCVNN,HRV_IQRNN,HRV_pNN50,HRV_pNN20,HRV_HTI,HRV_TINN,HRV_ULF,HRV_VLF,HRV_LF,HRV_HF,HRV_VHF,HRV_LFHF,HRV_LFn,HRV_HFn,HRV_LnHF,Time,TimeStamp,Delta_TP9,Delta_AF7,Delta_AF8,Delta_TP10,Theta_TP9,Theta_AF7,Theta_AF8,Theta_TP10,Alpha_TP9,Alpha_AF7,Alpha_AF8,Alpha_TP10,Beta_TP9,Beta_AF7,Beta_AF8,Beta_TP10,Gamma_TP9,Gamma_AF7,Gamma_AF8,Gamma_TP10,RAW_TP9,RAW_AF7,RAW_AF8,RAW_TP10,AUX_RIGHT,Accelerometer_X,Accelerometer_Y,Accelerometer_Z,Gyro_X,Gyro_Y,Gyro_Z,Attention,Meditation,A_M
701.9909502262443,38.40511001547248,,,,,,,26.04222613569869,26.11862036715839,0.05470883919955792,0.03709766646892748,700.0,34.21384615384618,0.04887692307692311,44.23076923076918,5.294117647058823,43.529411764705884,10.625,218.75,,,0.08519956935423795,0.027732080327807787,0.0018739237228528175,3.0722386617640716,0.7421204983991015,0.24155691666642126,-3.5851654013314533,2021-10-21 15:48:30,2021-10-21 15:48:30.064,0.9465391635385416,1.202856209779694,0.9966617059404648,0.8269257227817397,0.4327648081749834,0.6147176926175242,0.4186235920885836,0.2111319408558413,0.8436661649705729,0.5854523608314339,0.5874058553962188,0.3068433090943891,1.105133863312143,1.008219525870355,0.958598273774392,0.951694192640794,0.8134752876244329,0.8282807878886688,0.7795258637055542,0.5823575807665774,827.2161172161173,796.9963369963368,789.7435897435898,871.5384615384613,859.8534798534797,-0.7150270000000001,-0.10192899999999999,0.703857,3.872986,-4.740295,0.695343,36.0,87.0,-51.0
701.8661811561218,38.42971785532568,,,,,,,25.834889835765672,25.908827750384464,0.0547536252452338,0.03680885406561425,700.0,34.21384615384618,0.04887692307692311,46.15384615384608,4.733727810650888,43.19526627218935,10.5625,218.75,,,0.08409336013582752,0.026735460017156525,0.001812764395788926,3.1453866917518387,0.7465569707021985,0.2373498217754587,-3.621764504177892,2021-10-21 15:48:31,2021-10-21 15:48:31.001,0.9465391635385416,0.9531738159175308,1.1258975688824755,0.8269257227817397,0.4327648081749834,0.2456166642032715,0.4610309715359013,0.2111319408558413,0.8436661649705729,0.4975128906642955,0.5939464738397555,0.3068433090943891,1.105133863312143,0.8529514601593242,0.8657254923152186,0.951694192640794,0.8134752876244329,0.6742848230909382,0.6314005467427224,0.5823575807665774,809.8901098901099,797.3992673992674,803.4432234432236,847.3626373626372,1023.040293040293,-0.7167359999999999,-0.101624,0.691772,2.8636169999999996,-4.463654,1.375732,33.0,89.0,-56.0
702.3076923076923,38.58287642204564,,,,,,,26.06238526100029,26.139836799537452,0.05493728296676816,0.03710963947349439,700.0,34.21384615384618,0.04887692307692311,46.15384615384608,5.294117647058823,43.529411764705884,10.625,210.9375,,,0.0823465373543016,0.025685832208149247,0.0017494422429251669,3.2059127649434624,0.7500927157249657,0.2339716551015367,-3.6618157150369166,2021-10-21 15:48:32,2021-10-21 15:48:32.000,0.9562440880269721,0.9813437590041976,1.078106877590711,0.9071084327868038,0.4714203697053918,0.2142354126605038,0.6558492884234031,0.5157858366007603,0.5373623254923808,0.1644997366527035,0.3505655350996806,0.5305912351537407,1.1864159101571925,1.007690497431367,0.7141577970995253,1.033579567148231,0.8065931539986505,0.6734779051948426,0.6947735898194421,0.6520849525785807,786.1172161172162,805.8608058608058,795.3846153846154,817.1428571428571,688.2051282051282,-0.7281489999999999,-0.10375999999999999,0.683167,3.738403,-5.0617980000000005,1.069183,33.0,86.0,-53.0
702.3213472917613,38.678916238370775,,,,,,,26.04534702086007,26.123049243142066,0.05507296109896345,0.037084658071827335,700.0,34.21384615384618,0.04887692307692311,46.15384615384608,5.325443786982249,42.60355029585799,10.5625,218.75,,,0.08071842829208331,0.024732080865440133,0.0016980203448409158,3.2637135844431437,0.7533321144673495,0.2308205346382695,-3.6996540576227095,2021-10-21 15:48:33,2021-10-21 15:48:33.050,0.8932546068440009,0.9449553401664018,1.1205080936029599,0.9904530475693676,0.2518845384391135,0.2391643666350075,0.4537337068760381,0.4126466635025856,0.7120933532220179,0.3205039933421543,0.5734582607842647,0.8753047666109309,1.269385384661484,0.9215874177000302,0.8791000975982483,1.101183496795247,0.9954855385195506,0.5035683676553402,0.6814964298113759,0.8009568277637571,810.2930402930403,804.6520146520148,806.6666666666667,861.4652014652015,790.1465201465203,-0.720947,-0.10022,0.698181,3.521576,-4.583282,1.816864,36.0,76.0,-40.0
702.3076923076923,38.56472276332687,,,,,,,25.974916056388132,26.05206765755207,0.054911434383707484,0.0369850940561934,700.0,34.21384615384618,0.04887692307692311,46.15384615384608,5.294117647058823,42.352941176470594,10.0,210.9375,,,0.07988843248017971,0.0242463819160831,0.0016796348890242428,3.2948599406160533,0.7549860441534971,0.2291405576445639,-3.719487872066753,2021-10-21 15:48:34,2021-10-21 15:48:34.008,0.9490236144996717,1.037995070197905,1.2402480814481,0.9899458935089824,0.2420770306312547,0.2225221176917256,0.2164539794404189,0.2781827406189825,0.5121988721271191,0.3190794528539046,0.3951385219920854,0.7242858519643964,1.043503608402117,0.9737240754622526,0.7231595941301658,1.007121783134923,0.8948646083128386,0.6852031903307565,0.5027635939997821,0.7385536799405802,780.4761904761905,788.1318681318681,801.8315018315019,809.4871794871796,929.5604395604396,-0.721863,-0.10736099999999996,0.685669,3.200073,-4.762726,1.375732,48.0,64.0,-16.0
702.3529411764706,38.56651181213626,,,,,,,25.914187503500813,25.991038261976506,0.05491044395362784,0.03689624686428089,700.0,34.21384615384618,0.04887692307692311,46.15384615384608,5.294117647058823,41.76470588235294,10.625,218.75,,,0.07953587351746244,0.024003845683685424,0.0016805811930158676,3.3134637909924662,0.7558985596839645,0.2281294160325059,-3.7295412246505135,2021-10-21 15:48:35,2021-10-21 15:48:35.051,1.119977649078489,1.117266734052927,1.313525030434491,1.1207329206788421,0.4724982209022317,0.2565693132818213,0.4821546886545936,0.2876408961006096,0.7117564090153766,0.2534547668522499,0.2855600586927317,0.6512573660159883,0.9254143878836584,0.8721223131262168,0.7275609325141212,0.8956757539672315,0.7052077854340851,0.67664620534807,0.4787768376019062,0.6766855716768412,782.8937728937732,795.3846153846154,791.7582417582418,792.1611721611722,960.18315018315,-0.72821,-0.102051,0.6857300000000001,3.6187739999999997,-3.8804629999999998,0.717773,61.0,56.99999999999999,4.000000000000006
702.4578971324534,38.65676442854693,,,,,,,25.60207664513275,25.67364565418428,0.05503072082519121,0.03644642155728416,700.0,34.21384615384618,0.04887692307692311,46.15384615384608,5.325443786982249,40.828402366863905,10.5625,218.75,,,0.07972353803689529,0.024012210489637437,0.0017021505243354144,3.3201249035902087,0.7561184237788441,0.2277379453288692,-3.7291928076124115,2021-10-21 15:48:36,2021-10-21 15:48:36.039,1.009033144647367,1.015446212726381,1.1867705470857621,1.0183036018811629,0.6204632043432535,0.3498623513000989,0.5363947953002857,0.5328411164393214,0.9705415312156608,0.4636310016259382,0.3256956380261495,0.7720391677305343,0.970409816532218,0.7249246706535771,0.8459447705472383,0.9607174122747224,0.7456032933961863,0.5552923423345436,0.512325669740379,0.71054979258122,765.5677655677656,786.9230769230769,766.7765567765567,803.4432234432236,769.1941391941392,-0.724792,-0.098267,0.684692,3.6636349999999998,-4.441223,0.18692,72.0,50.0,22.0
702.6696832579187,38.25856103120925,,,,,,,25.67665556656465,25.74968307614343,0.05444743375553639,0.036541573058218736,700.0,34.21384615384618,0.04887692307692311,46.15384615384608,5.294117647058823,41.17647058823529,10.0,218.75,,,0.08071650167890604,0.02437290205413879,0.0017580046941301866,3.3117312620225903,0.755437149736025,0.22810943581051715,-3.7142833353762184,2021-10-21 15:48:37,2021-10-21 15:48:37.064,0.8980576033785009,0.9146934035456477,1.169385048225789,0.907978300492288,0.7025507262892048,0.3428019483606958,0.3456602359608841,0.6296910073155395,1.0403118891224121,0.4970383765295657,0.4022496913387379,0.8159407175709456,1.098151317107981,0.6874885471970207,0.7659535234844522,1.055544746760434,0.8689361796915941,0.6407489616478036,0.5967160774849479,0.794212786621428,838.4981684981685,825.6043956043958,832.8571428571429,855.0183150183151,782.8937728937732,-0.720032,-0.099182,0.690735,3.55896,-5.046844,0.979462,76.0,44.0,32.0
703.4592626308603,37.748997163419645,,,,,,,23.820439875764137,23.88807667704475,0.053661951968963416,0.03386186114982453,700.0,34.21384615384618,0.04887692307692311,46.15384615384608,4.733727810650888,40.828402366863905,9.941176470588236,218.75,,,0.07891247914578245,0.02400707133027741,0.0017640258591243934,3.2870514716328207,0.7538190985481252,0.22932987361273985,-3.729406853270108,2021-10-21 15:48:38,2021-10-21 15:48:38.029,0.9567142284854852,1.2683555614903708,1.390129627858907,1.033171116315738,0.6812926487805123,0.650204472274296,0.4132320607286067,0.4858325934344792,0.6702797930562269,0.2765938210322144,0.2869172321084741,0.5546710700698338,1.1387260724032042,0.8164810835986603,0.7071377086453974,1.046968433880896,0.8812425297425303,0.6623735107300782,0.6584050955913787,0.7503742788655009,794.1758241758242,787.7289377289377,802.6373626373628,834.0659340659341,895.7142857142858,-0.720459,-0.09661900000000001,0.70105,4.164581,-3.8954160000000004,1.5551760000000001,71.0,38.0,33.0
703.1861629494765,37.322916709542405,,,,,,,23.879511113091947,23.94979920293615,0.053076864529008144,0.033959017357410186,700.0,34.21384615384618,0.04887692307692311,46.15384615384608,4.733727810650888,41.42011834319527,9.941176470588236,218.75,,,0.0769385296906544,0.02365536396029229,0.0017639908542663614,3.2524771049730115,0.7516619756510887,0.23110446327256334,-3.7441653838287516,2021-10-21 15:48:39,2021-10-21 15:48:39.013,0.8116570620455272,1.4451921089285031,1.3933534529223501,1.339149112113259,0.2807967871775959,0.9819856194421264,0.5714939035558321,0.6785702977040579,0.6814516937630805,0.6851867845937418,0.6093666653855232,0.6124554110931808,1.138771185820275,0.8727649426153009,0.8878175209163996,0.8824044349475549,0.6400245684673285,0.6326362799520913,0.6045980441259651,0.6218805746107624,807.4725274725273,810.2930402930403,808.6813186813188,774.8351648351648,761.5384615384613,-0.725037,-0.100952,0.688416,2.998199,-4.620667,1.585083,55.00000000000001,35.0,20.000000000000007
703.3031674208145,37.13060393058368,,,,,,,23.63903474016353,23.70910882211059,0.05279459221938489,0.033611443592460516,700.0,34.21384615384618,0.04887692307692311,46.15384615384608,4.705882352941177,40.588235294117645,10.0,218.75,,,0.07496222658967093,0.02337227046614336,0.0017664031109812586,3.207314697913488,0.7488666581895197,0.2334871157721733,-3.756204982127597,2021-10-21 15:48:40,2021-10-21 15:48:40.033,0.8980921690422577,1.1739426813189981,1.528085702174523,1.339149112113259,0.4214677050208502,0.6803678731845377,1.0241951938803058,0.6785702977040579,0.7061781122051805,0.6256251707160994,0.9073302304369864,0.6124554110931808,1.192657091087497,0.7885145090603476,0.8971265558105923,0.8824044349475549,0.6772958901840682,0.6560041937994379,0.4590514628624058,0.6218805746107624,811.098901098901,818.3516483516484,808.2783882783882,840.9157509157509,668.0586080586081,-0.7243649999999999,-0.103394,0.689819,3.573914,-4.912262,1.1589049999999999,39.0,33.0,6.0
703.0951297223486,37.14144377958584,,,,,,,23.790849255800023,23.86192883678373,0.05282563085631521,0.033837311979667675,700.0,34.21384615384618,0.04887692307692311,46.15384615384608,4.733727810650888,41.42011834319527,9.941176470588236,218.75,,,0.07243136856404814,0.023098014646838902,0.0017679539744150762,3.1358265925232147,0.7444332050537322,0.2373961643251232,-3.7680086111722497,2021-10-21 15:48:41,2021-10-21 15:48:41.000,0.8923497076393861,1.092636205059168,1.188603616882128,1.201033578314118,0.25974006082801504,0.2174613938724314,0.5214468154982965,0.2151611018236606,0.5711552049970449,0.2770690754007555,0.543358079692568,0.6201635183412881,1.008724561362094,0.7773458800496997,0.5647366427349311,0.9710728718170898,0.9892094477179684,0.6508915972548212,0.5567411854866388,0.6465854744667525,786.5201465201468,796.5934065934067,798.6080586080586,740.5860805860806,761.5384615384613,-0.727905,-0.10876500000000001,0.683228,3.648682,-4.979553,1.039276,24.0,30.0,-6.0
702.89592760181,36.971150440589746,,,,,,,23.75723065075116,23.827656858983367,0.05259832784453671,0.0337990728325995,700.0,34.21384615384618,0.04887692307692311,44.23076923076918,4.705882352941177,41.76470588235294,9.444444444444443,210.9375,,,0.06878093613035435,0.02241675216460894,0.0017262072252762954,3.0682828460290583,0.7401856728592842,0.24123775740467515,-3.7979467351409717,2021-10-21 15:48:42,2021-10-21 15:48:42.072,0.867173488295514,1.068922994463661,1.0595936252253442,1.390962810422501,0.3233481199765322,0.1416465208547878,0.5259369674675759,0.6763779576729809,0.5715825861476056,0.3351999625417375,0.3782732267669139,0.8827266922237301,1.08758575914584,0.8147334081174521,0.8605135055191392,1.026569712426164,0.8822548161744836,0.4941248980362739,0.6683465641834566,0.6998811170859461,805.8608058608058,796.5934065934067,809.0842490842491,846.1538461538463,960.9890109890108,-0.7262569999999999,-0.100464,0.69397,4.11972,-5.211334,1.001892,16.0,25.0,-9.0
702.9585798816568,37.043454564385335,,,,,,,23.70928462680376,23.779987179748375,0.052696496812972414,0.03372785439334878,700.0,34.21384615384618,0.04887692307692311,46.15384615384608,4.733727810650888,41.42011834319527,9.388888888888891,210.9375,,,0.06549564515705766,0.0218724916987793,0.0016865582745139507,2.9944299926611917,0.7354541505216602,0.24560739517174415,-3.822525518511676,2021-10-21 15:48:43,2021-10-21 15:48:43.034,1.080032175064842,1.169497321582678,1.291946455605711,1.4484126965785131,0.5177848250970821,0.5792332561341155,0.7921846958595977,0.9897055060428656,0.7942703308633339,0.4930133525174689,0.7802361549266766,0.9028326038354112,1.164614271076127,0.9618471498748641,1.009308112492626,1.082238765842865,0.8956518817869452,0.5628559363861078,0.7426953989121783,0.8706082693980157,806.6666666666667,805.054945054945,797.8021978021977,830.4395604395604,789.7435897435898,-0.718445,-0.09753400000000001,0.674988,4.052429,-3.8356019999999997,1.353302,18.0,26.0,-8.0
703.1861629494765,37.095740199585116,,,,,,,23.70928462680376,23.77732632309073,0.05275379715094085,0.0337169385235859,700.0,34.21384615384618,0.04887692307692311,46.15384615384608,4.733727810650888,41.42011834319527,9.388888888888891,210.9375,,,0.06202127975873845,0.0213996018761504,0.0016419314221077026,2.898244561636468,0.7291233093500086,0.2515741145524019,-3.844382961045592,2021-10-21 15:48:44,2021-10-21 15:48:44.063,1.3726587443023368,0.9594651365392568,1.270629264427309,1.2815888994611788,0.3436581324199966,0.6190215871174463,0.4416476161351693,0.4768743867709421,0.5537227221320502,0.4829225096128097,0.5684368198691698,0.6728021097483887,1.0111427302058589,0.9706338476574888,0.7521942829686827,0.9155492427875536,0.8530790647247257,0.6980638306952966,0.5963269589574804,0.9304868994698788,783.6996336996338,798.6080586080586,793.3699633699632,791.7582417582418,1087.106227106227,-0.727173,-0.101379,0.682251,3.3047489999999997,-4.478607,1.4280700000000002,26.0,22.0,4.0
703.7323623122438,37.12045182509839,,,,,,,23.47039405321613,23.540559812306828,0.05274796756984747,0.03335130698849741,707.6923076923077,34.21384615384618,0.048345652173913074,46.15384615384608,4.733727810650888,40.23668639053255,9.941176470588236,218.75,,,0.05977508129545521,0.021186281599402,0.0016098010366037796,2.8214050216883,0.7239219898253112,0.25658208738571103,-3.854401401127925,2021-10-21 15:48:45,2021-10-21 15:48:45.063,1.296088139852986,1.19141397767006,1.365998717114701,1.2300724973350659,0.6797957364408926,0.601470053081287,0.3191197526306875,0.3412924572805813,0.7772262976710218,0.6654863620860806,0.39174357887105504,0.6986021769125833,1.0425941199223459,0.919120588765948,0.8081573522187085,0.943981706790966,0.8558281506542305,0.6885096202256529,0.5942309891423945,0.8149568114807674,807.0695970695973,798.2051282051282,806.6666666666667,837.6923076923077,879.5970695970697,-0.734436,-0.09564199999999999,0.68158,3.55896,-3.7757870000000002,0.91217,32.0,25.0,7.0
703.5047792444243,37.071574286659775,,,,,,,23.47039405321613,23.536079770281177,0.05269555428816738,0.03336209610178302,700.0,34.21384615384618,0.04887692307692311,46.15384615384608,4.733727810650888,40.23668639053255,9.941176470588236,218.75,,,0.058035895937820416,0.021127287973805944,0.0015812867281094444,2.746963832261601,0.718760002734601,0.2616561580801153,-3.8571898051512674,2021-10-21 15:48:46,2021-10-21 15:48:46.023,1.0262766643494492,1.119283296489572,1.1975938853803407,1.072528589591638,0.5032263110653327,0.6371142823332826,0.4636986122998295,0.4357132260038188,0.7961049926411375,0.7667459825507474,0.947682857167316,1.071522309123081,1.085161350086203,0.8911298358055277,0.8911838042443181,1.018760574787584,0.7837563483452507,0.5968998908589196,0.5491407900069321,0.6782964483616678,824.7985347985347,788.1318681318681,778.0586080586081,844.945054945055,768.3882783882782,-0.720581,-0.09729,0.690674,3.4841919999999997,-9.547882000000001,1.629944,32.0,31.0,1.0
703.2579185520362,36.64583501040941,,,,,,,23.46062438059055,23.528749749054562,0.052108670295331866,0.03335991499234661,703.8461538461537,28.51153846153854,0.04050819672131159,46.15384615384608,4.705882352941177,40.0,10.0,218.75,,,0.056679443487426186,0.02128219617038321,0.0015510372845783625,2.6632328277427773,0.7128353071107671,0.2676579004603704,-3.8498844163383565,2021-10-21 15:48:47,2021-10-21 15:48:47.056,0.7973614996560622,1.0124531275836999,1.498896035413289,1.128411399295309,0.4432055496300739,0.6415092731107876,1.064786752692486,0.6561040818238602,0.8362279695900753,0.6864641201789652,1.029561922780074,1.064246377242475,1.047962353317364,0.6615150494683946,0.8272061957251352,0.9890479557489577,0.8649032525694289,0.5982312138703896,0.5043053040679628,0.7752714709769813,861.8681318681319,787.3260073260074,776.0439560439563,858.2417582417582,954.9450549450548,-0.618286,-0.093933,0.787354,4.127197,-7.035675,0.9495540000000001,24.0,36.0,-12.0
702.4578971324534,35.858555419948274,,,,,,,23.31984475076484,23.38883905940555,0.051047266414583264,0.03319749816460206,700.0,34.21384615384618,0.04887692307692311,38.46153846153845,4.733727810650888,39.644970414201175,9.941176470588236,218.75,,,0.0562869734579624,0.02159388094890684,0.0015326371513220355,2.606616827755172,0.7087835121405961,0.27191703229776315,-3.835345293828501,2021-10-21 15:48:48,2021-10-21 15:48:48.006,0.812987892552186,1.317020489373007,1.533001445231802,1.1018272883783178,0.6599515041404977,0.6020213800500626,1.12171677885326,0.6053408197756516,0.7913013288314698,0.4509075876947813,0.6685487309790231,0.9103441005299916,1.025107345938044,0.7879119362494746,0.9166289615612544,1.009525805375385,1.004039673519324,0.7561064147155877,0.5699074510169094,0.9005549062912842,792.1611721611722,793.3699633699632,788.9377289377289,730.9157509157509,519.3772893772892,-0.615112,-0.08630399999999999,0.789429,4.329071,-3.551483,1.457977,12.0,45.0,-33.0
702.0482476103778,35.751688121485365,,,,,,,23.500388179260717,23.567780138257298,0.05092483065540933,0.03347403580772549,700.0,34.21384615384618,0.04887692307692311,38.46153846153845,4.733727810650888,40.23668639053255,9.941176470588236,218.75,,,0.05655586561327435,0.022092983550971987,0.0015221851904267285,2.559901675696769,0.7054401389294009,0.2755731384633709,-3.812495207249259,2021-10-21 15:48:49,2021-10-21 15:48:49.039,1.072423440386927,1.0013665490731078,1.082888590012878,1.121697828813998,0.9060533146706284,0.2305669836950401,0.6023689259142797,0.8636341027948791,1.153916816481834,0.3383780906456434,0.7033333905349846,0.8111949312230538,0.8644889246368307,0.8708909610922986,0.8699188784456199,0.8964755534128974,0.7934171693320501,0.5801477058231601,0.5476956253067862,0.6343058993801824,801.4285714285713,798.6080586080586,794.1758241758242,818.3516483516484,785.7142857142858,-0.627502,-0.090759,0.781189,4.044951999999999,-5.390778,1.26358,6.0,48.0,-42.0
701.447963800905,35.719146863777546,,,,,,,23.46062438059055,23.528749749054562,0.050922019461326525,0.033445993988585415,700.0,34.21384615384618,0.04887692307692311,38.46153846153845,4.705882352941177,40.0,10.0,218.75,,,0.05693491742633675,0.022616433379931564,0.0014967265583599792,2.5174136199944463,0.7024832578099476,0.27904959766265874,-3.789078496237678,2021-10-21 15:48:50,2021-10-21 15:48:50.023,1.133623373118156,1.011236037608457,1.227250451844698,1.157336228853421,0.6957412784487477,0.3280838476423619,0.1737954148960325,0.7037172171595015,1.1719719821796941,0.3206456471118442,0.3649873621242353,0.8311080367070776,0.7950777178261333,0.8559497849423118,0.6601358059347643,0.8276407851000499,0.8103278647669929,0.5783004126561511,0.5037861432103111,0.7457388962876199,837.2893772893773,815.5311355311355,804.2490842490844,807.8754578754579,618.4981684981685,-0.623718,-0.088318,0.774963,4.344025,-4.231873,1.031799,7.000000000000001,46.0,-39.0
701.0013654984068,35.69311337959228,,,,,,,23.477896177126194,23.546964791449604,0.05091732361207989,0.03349194071887945,700.0,34.21384615384618,0.04887692307692311,38.46153846153845,4.733727810650888,40.23668639053255,9.941176470588236,218.75,,,0.0555455809343761,0.022259377721297397,0.0014242499393757528,2.4953788749103727,0.7010745395461006,0.2809491362594313,-3.8049918885435736,2021-10-21 15:48:51,2021-10-21 15:48:51.052,1.356031926761803,1.175568394145382,1.20696465569024,1.299073309107957,0.5648655167940593,0.1811878574563981,0.2039775781730071,0.6644498160320658,0.6740552769796451,0.2514496590550229,0.3733825769590323,0.7349924099174698,0.8029904859552557,0.7189481411273589,0.8267445952655095,0.8225635697148221,0.8320591916656455,0.5476664012610897,0.5387454079217777,0.8812714317200292,799.8168498168499,801.4285714285713,799.0109890109891,836.8864468864467,838.901098901099,-0.625916,-0.085999,0.777771,3.379517,-4.523468,0.88974,13.0,42.0,-29.0
700.8597285067873,35.58607858962559,,,,,,,23.63903474016352,23.707702337632753,0.050774894236601816,0.03372862468575208,700.0,34.21384615384618,0.04887692307692311,38.46153846153845,4.705882352941177,41.17647058823529,10.0,218.75,,,0.054478853345410486,0.02193874132943107,0.0013577428034197766,2.483226021372816,0.7004643774208972,0.28207838166646443,-3.819501194539542,2021-10-21 15:48:52,2021-10-21 15:48:52.025,0.8139133532312248,1.04965895004585,1.2176793862327355,0.9496614523957262,0.4948680464215395,0.2113302301937745,0.4046656437191362,0.5939766157346215,0.7903366278484879,0.196536148201995,0.3863947730519768,0.8726309405448193,0.9772722610611438,0.8356891697689613,0.8472022892314772,0.9136285211283132,0.7300196897651707,0.6287206233453819,0.4844197012253272,0.7154878345231829,796.1904761904763,800.2197802197803,798.2051282051282,819.5604395604396,725.6776556776558,-0.631897,-0.097717,0.772522,3.7159730000000004,-4.9047849999999995,0.49346899999999994,22.0,41.0,-19.0
700.5429864253392,35.55791083071432,,,,,,,23.646439293122,23.71455816156209,0.05075764302795417,0.0337544444114453,700.0,34.21384615384618,0.04887692307692311,38.46153846153845,4.705882352941177,41.17647058823529,10.0,218.75,,,0.053716228879460204,0.02165697867827422,0.0012974194016834202,2.4803196086325316,0.7006102729261948,0.2824677394347821,-3.8324275356763855,2021-10-21 15:48:53,2021-10-21 15:48:53.000,0.8743708527548102,0.9349567706124732,0.9904212962814136,0.8493009888648569,0.3239848333235155,0.1759327690854088,0.3337183346685174,0.2759493910631347,0.7335197236502309,-0.012546936165637141,0.3777781024141664,0.7100851749075211,0.8990390090586065,0.8019517475453484,0.7286337249764449,0.8717693265711345,0.7168423349910854,0.5102678213897037,0.4775050004645462,0.7840860553271156,799.4139194139194,814.3223443223442,789.7435897435898,748.6446886446887,771.6117216117218,-0.626404,-0.088074,0.774597,3.6860660000000003,-4.3365480000000005,0.381317,32.0,36.0,-4.0
700.180995475113,35.36415609645338,,,,,,,23.235685107777353,23.304020895845103,0.05050716361196975,0.03318525532389036,700.0,34.21384615384618,0.04887692307692311,38.46153846153845,4.117647058823529,41.17647058823529,9.444444444444443,210.9375,,,0.053254073756528665,0.02140451185645389,0.001233128833853977,2.487983566907249,0.7017113020135297,0.2820401675264317,-3.844153544763049,2021-10-21 15:48:54,2021-10-21 15:48:54.078,0.8007291871204415,0.8800853733203485,1.12134964096769,0.9285246329877308,0.1963657509342227,0.2007329643328948,0.3657069187902817,0.1322828638875762,0.8579810142449227,0.1112858040924428,0.2612184628412407,0.6900386080412739,0.9925751855826236,0.8616879191903349,0.7090303581083126,0.962308051470932,0.9175835185924478,0.6508173441646965,0.7281402761594558,0.8727747852638487,792.5641025641023,813.9194139194141,799.0109890109891,830.4395604395604,741.3919413919414,-0.6286010000000001,-0.094055,0.777405,3.596344,-5.405730999999999,0.747681,44.0,28.000000000000004,15.999999999999995
700.4524886877828,35.36170997125666,,,,,,,23.235685107777353,23.301874461095572,0.050484094984804405,0.03317239282182684,700.0,34.21384615384618,0.04887692307692311,38.46153846153845,4.117647058823529,41.17647058823529,9.444444444444443,210.9375,,,0.0527837064282177,0.02110507072148164,0.0011818242778436725,2.5009964252094266,0.7031208678827986,0.2811362946366152,-3.8582419488183617,2021-10-21 15:48:55,2021-10-21 15:48:55.023,0.9096035034822952,1.014449950583328,1.219252474509531,1.055390665975223,0.3035299605923789,0.4185590355878304,0.531147380043659,0.3968077624430866,0.6758561152614126,0.358051502017541,0.33320974807342796,0.5034907450899726,1.129454257355097,0.8189466721086255,0.9518049833345436,1.0832963180339479,0.925251917335857,0.5545863498953202,0.6874300090241573,0.8033771758212388,781.6849816849817,787.3260073260074,792.1611721611722,818.3516483516484,752.2710622710623,-0.629333,-0.087158,0.77594,3.289795,-5.323486,1.749573,54.0,22.0,32.0
700.7197480881689,35.19377478324006,,,,,,,22.98624719352352,23.04968628378375,0.05022517900952859,0.032803766778714015,700.0,34.21384615384618,0.04887692307692311,38.46153846153845,3.5087719298245608,40.93567251461988,9.5,210.9375,,,0.05111162368278874,0.02028789114279192,0.001106019737157772,2.5193167354384283,0.7049340990453947,0.27981162079754035,-3.8977310663375406,2021-10-21 15:48:56,2021-10-21 15:48:56.000,0.9785554978611136,1.114946694615706,1.159009044752143,1.133492410823913,0.2826260523658948,0.4033452843801076,0.4428802024064631,0.6034527453831762,0.2847115079517265,0.3640404209134571,0.5230907971070651,0.4159424511944993,0.992901178445202,0.8375022590306088,0.8870681259481816,0.9666485796775904,0.7155083651879186,0.48142139956280894,0.5292762613285743,0.6110211985268003,857.8388278388278,812.7106227106227,813.5164835164835,796.9963369963368,720.0366300366301,-0.63446,-0.099426,0.7731319999999999,3.9851379999999996,-5.046844,0.9196469999999999,57.99999999999999,21.0,36.99999999999999
702.0361990950228,33.20517015867655,,,,,,,22.970472122818546,23.02240129310743,0.04729837321990021,0.032719783043138245,700.0,34.21384615384618,0.04887692307692311,38.46153846153845,3.5294117647058822,41.17647058823529,8.947368421052632,203.125,,,0.04958548139590868,0.01946493784182783,0.00102855446839863,2.5474256223595737,0.7075657472359311,0.2777571761174886,-3.9391404912550088,2021-10-21 15:48:57,2021-10-21 15:48:57.033,1.03458588054967,1.063661377117828,1.2033236172183401,1.238347880568544,0.4785864284404346,0.764460472159931,0.3410789103807355,0.6417291473433969,0.4071803146197708,0.4991739205156889,0.6048421489353308,0.4519943970204344,0.7957267394564018,0.8440843030816892,0.7729479808791456,0.8613129377930316,0.6225349058401272,0.5436757294771337,0.6399813595149136,0.6134722919707309,787.7289377289377,804.6520146520148,806.6666666666667,823.992673992674,834.4688644688645,-0.62616,-0.094238,0.7731319999999999,4.7702029999999995,-3.596344,1.629944,54.0,25.0,29.0
703.6413290851161,30.724155270298294,,,,,,,22.253312523910708,22.316815806285053,0.04366451201814176,0.0316259315706267,700.0,34.21384615384618,0.04887692307692311,38.46153846153845,2.9585798816568047,40.828402366863905,8.894736842105264,132.8125,,,0.04876171735584655,0.01895309272909386,0.000979538711992108,2.5727578107078584,0.7098359357039856,0.27590468591704875,-3.9657881560686166,2021-10-21 15:48:58,2021-10-21 15:48:58.007,0.9579083266929694,0.9243701862787624,1.33092406461056,1.06293486678873,0.5503215291264554,0.5965767726978093,0.6182145749087111,0.549433643115234,0.4987452057814026,0.4480566860229008,0.5913691956606251,0.5526324506649162,1.00756485112644,0.930051643531155,0.9686510921894308,0.9362151623985832,0.6475998344200861,0.430465520680093,0.7026517106766178,0.6361426186412025,791.3553113553114,773.6263736263736,780.4761904761905,825.6043956043958,768.7912087912088,-0.63855,-0.09906000000000001,0.78064,4.673004,-4.486084,0.4187010000000001,48.0,29.0,19.000000000000004
704.5971779699589,31.46331983353509,,,,,,,22.23747949983304,22.302257269937588,0.044654336998886685,0.03156055714543487,700.0,34.21384615384618,0.04887692307692311,38.46153846153845,2.9585798816568047,40.23668639053255,8.894736842105264,140.625,,,0.048086835120073564,0.0184650244544409,0.000933162678126906,2.604211829706432,0.7125556681311078,0.2736166313365657,-3.9918769063112567,2021-10-21 15:48:59,2021-10-21 15:48:59.008,1.015319075421535,1.1070445624243601,1.4585998549812869,1.1246551863664522,0.5421855820521104,0.5188296490530171,0.7011411428824026,0.2851179719847428,0.6149409356664559,0.5279911736634239,0.5954911364884183,0.4282155027407611,0.9590385902656872,0.8862595488192071,0.915775603718128,0.9506906631824598,0.7135338334097244,0.4360292879390185,0.6974915403893104,0.5402260631919332,846.5567765567764,804.2490842490844,765.9706959706958,838.901098901099,813.5164835164835,-0.639404,-0.101379,0.775269,4.224396,-5.233765,0.8374020000000001,40.0,30.0,10.0
704.733727810651,31.593804743469853,,,,,,,22.237479499833032,22.30395940749167,0.044830839644386285,0.03155444194350783,700.0,34.21384615384618,0.04887692307692311,38.46153846153845,2.9585798816568047,40.23668639053255,8.894736842105264,140.625,,,0.047724884899194894,0.018166867606173958,0.0009046599971953568,2.627028827081655,0.7144827560516489,0.2719737022624765,-4.00815580515191,2021-10-21 15:49:00,2021-10-21 15:49:00.051,1.151879808481272,0.9233515985183256,1.213377084351971,1.345280141350973,0.4076617130938074,0.5498001203430718,0.5857749570099057,0.1386363499752488,0.4800297652927401,0.3805412098693001,0.4980785046431213,0.1631408895198345,1.061463362814048,0.9054162360777545,0.7875246632708568,0.9251443731438196,0.8267661492031911,0.8486995958306689,0.6646457686912463,0.8054982075560525,771.2087912087912,802.2344322344322,809.4871794871796,789.3406593406594,672.893772893773,-0.638794,-0.096802,0.769897,3.693542,-4.501037999999999,1.136475,35.0,31.0,4.0
704.688211197087,31.539270359899177,,,,,,,22.245397420504045,22.31185373611323,0.04475634735867362,0.031567716143164566,700.0,34.21384615384618,0.04887692307692311,38.46153846153845,2.9585798816568047,40.23668639053255,8.894736842105264,140.625,,,0.04752875417271181,0.01795808571223996,0.000885410788856568,2.6466492550660297,0.7160937543958789,0.2705661708007521,-4.01971480796697,2021-10-21 15:49:01,2021-10-21 15:49:01.011,1.161359537052618,1.115449926458955,1.264622116691437,1.1124271865862299,0.8304236562916406,0.6637497588503388,0.6235717841306267,0.6168579987865214,0.8597367632276066,0.7225407346731261,0.6607626250867656,0.8493236826079206,0.9699781798831536,1.083436121992327,0.8844449429544831,0.9621665732735618,1.003472624658452,0.8765110588010969,0.6815268662848,0.8584587288201643,786.1172161172162,795.3846153846154,779.6703296703297,820.7692307692308,751.4652014652015,-0.650696,-0.097595,0.761841,3.701019,-4.4711300000000005,0.72525,39.0,27.0,12.0
704.0964952207555,31.145088794912038,,,,,,,22.434589182160888,22.499361885177333,0.04423411990589034,0.03186294681828656,700.0,34.21384615384618,0.04887692307692311,38.46153846153845,2.9585798816568047,40.828402366863905,8.894736842105264,140.625,,,0.04750712243279824,0.017848825581530118,0.0008761751325061299,2.6616385608002338,0.7172821914145268,0.269488953901717,-4.025817566672806,2021-10-21 15:49:02,2021-10-21 15:49:02.056,1.094619665076415,1.0652373321951958,1.415473757666814,0.92122065890684,0.7717911357099754,0.6740920328926394,0.5652266963208363,0.6023578182059276,0.9057694801941492,0.7993907754762457,0.6537368564067959,0.8779889133714872,1.1124964531519652,1.0230102991170509,0.8032866216487536,1.1128232816202022,0.9418643755390772,0.6775411563360768,0.6195606298411088,0.8604512418317924,797.8021978021977,799.4139194139194,798.6080586080586,746.6300366300368,1056.886446886447,-0.646545,-0.095703,0.764404,4.007568,-5.50293,0.70282,41.0,28.000000000000004,12.999999999999995
703.823395539372,30.907704208748694,,,,,,,22.245397420504045,22.31185373611323,0.04391400513911976,0.03160650464518359,700.0,34.21384615384618,0.04887692307692311,38.46153846153845,2.9585798816568047,40.23668639053255,8.45,117.1875,,,0.04770346761312426,0.017860152279064782,0.0008794771073704185,2.6709440584692583,0.7179597244457245,0.26880372959109955,-4.025183177306706,2021-10-21 15:49:03,2021-10-21 15:49:03.043,1.061942654371781,1.2206790274166308,1.3674717792865292,1.008396551979726,0.6979369190873334,0.4900245425075705,0.6701650629299687,0.8166310471720556,0.9769099237480152,0.560775680709359,0.5012926915414072,0.7126878949937182,1.032021300243747,0.9660105446988568,0.926353490247668,1.069060670900006,0.754466448830524,0.6340412483321598,0.64578043510361,0.8893992816608014,772.8205128205127,784.9084249084249,809.4871794871796,775.6410256410257,616.080586080586,-0.6516109999999999,-0.100098,0.7582399999999999,2.826233,-4.628143,1.390686,43.0,32.0,11.0
704.2533936651582,31.142611242635013,,,,,,,22.305416360912147,22.369420556634626,0.04422074713841132,0.03167243006785907,700.0,34.21384615384618,0.04887692307692311,38.46153846153845,2.9411764705882346,40.0,8.5,132.8125,,,0.04800949457236305,0.01798300842885683,0.0008941653878132697,2.669714289591477,0.7177737466773688,0.2688578884548741,-4.01832794308669,2021-10-21 15:49:04,2021-10-21 15:49:04.031,1.079757327563328,1.4705144897559843,1.7279336261767098,1.0226687061717459,1.000054161757544,1.022643579611155,0.7823982244628069,1.086196517518539,0.8895311767750592,0.6898683303315932,0.8521029008624855,0.6461794375132552,0.9753370322817212,1.0108556759205942,0.8971076008796992,1.014753517677808,0.6556549497578092,0.5129634665565749,0.6048206650678412,0.7952607567282639,792.9670329670329,807.8754578754579,791.3553113553114,819.5604395604396,754.6886446886447,-0.654419,-0.094788,0.7617189999999999,3.424377,-4.755249,1.07666,42.0,36.0,6.0
704.1420118343194,31.11074212503752,,,,,,,22.25331252391071,22.319650779658453,0.04418248251370874,0.031603443836478236,700.0,34.21384615384618,0.04887692307692311,38.46153846153845,2.9585798816568047,40.23668639053255,8.04761904761905,93.75,,,0.048393731998617455,0.018199878527794512,0.0009195904935384232,2.659014010709547,0.7168039919232527,0.2695751090578032,-4.006340359218664,2021-10-21 15:49:05,2021-10-21 15:49:05.057,1.436117769997763,1.3388407626543861,1.587021824116394,1.291685921700573,0.6919668985198515,0.8810174174621985,0.8117332967096981,0.5093086299258122,0.8424136009319907,0.6621087107907159,0.8521029008624855,0.7756737843658308,0.9052809508505676,1.02962227016581,0.8243094761955378,0.9025201868005942,0.8517513247777019,0.5490384460510269,0.6354408830769923,0.8216817042940139,818.3516483516484,823.1868131868132,831.6483516483516,771.2087912087912,1007.3260073260068,-0.657227,-0.099976,0.751587,3.91037,-5.480499,0.643005,36.0,41.0,-5.0
703.9366515837103,31.02125095446373,,,,,,,22.297566486883756,22.36382983203613,0.04406824234066006,0.03167552994537064,700.0,28.51153846153845,0.040730769230769216,38.46153846153845,2.9411764705882346,41.17647058823529,7.727272727272727,93.75,,,0.0489277816207484,0.018595704946870538,0.0009669021828884107,2.631133466600976,0.7143744182702709,0.2715082405884693,-3.984824641763296,2021-10-21 15:49:06,2021-10-21 15:49:06.041,1.2310951561453507,1.272320866742883,1.0915074365579658,1.300948918625872,0.7157381242373699,0.5711136304630497,0.3667597082455346,0.5725271099035038,0.919614118651312,0.7154235856730345,0.4944495116761435,0.7383812059409115,1.111510250681647,0.9317562252563736,0.8352254861249854,1.0335887502621908,0.7773414152390615,0.4959118507186779,0.6338282968857933,0.7726788815782027,787.3260073260074,792.5641025641023,795.3846153846154,766.3736263736264,610.0366300366301,-0.652405,-0.100281,0.75647,3.708496,-4.329071,1.046753,30.0,46.0,-16.0
704.1875284478836,31.2796332295377,,,,,,,22.426738057097307,22.489095192584863,0.04441946493781549,0.03184767856728252,700.0,34.21384615384618,0.04887692307692311,38.46153846153845,2.9585798816568047,41.42011834319527,8.04761904761905,93.75,,,0.04941123173277974,0.019028220432346418,0.0010179856912714712,2.596734251027736,0.7113886324879537,0.2739551158176469,-3.961832115848847,2021-10-21 15:49:07,2021-10-21 15:49:07.031,0.9884003309046622,1.332906855517328,1.1251475282953702,0.9048582363377016,0.4879782123329015,0.3082587389748011,0.4127840846250513,0.3986604254168315,0.7963897113483414,0.6257152564601285,0.4507286970487779,0.8435330086866376,1.127911441271146,0.9001658690349232,0.8088750706970378,1.051214123376214,0.8346112903280878,0.5038069803919837,0.5938087261645165,0.8746845513516424,793.7728937728937,793.3699633699632,803.8461538461539,819.96336996337,712.3809523809523,-0.648804,-0.097717,0.758545,3.5290529999999998,-5.5776980000000025,0.897217,21.0,51.0,-30.0
704.5061447428312,31.19556920501231,,,,,,,22.426738057097307,22.489095192584863,0.04428005268342941,0.031833275301358564,700.0,34.21384615384618,0.04887692307692311,38.46153846153845,2.9585798816568047,41.42011834319527,8.04761904761905,93.75,,,0.050071585095177965,0.019714553052848,0.001097137389646568,2.5398285703435985,0.7063949107228585,0.27812700391321865,-3.92639818232048,2021-10-21 15:49:08,2021-10-21 15:49:08.000,1.177166223387583,1.320009272665053,1.1513641978965679,1.055705581413498,0.6164520922775771,0.5548754086917624,0.7794958622799839,0.4863820406433266,0.90608654864251,0.5952122361952856,0.71977560742257,0.973948395134251,1.079209803385295,0.8107157979758263,0.8374792692830226,1.05870603881586,0.6612483857640907,0.5240236553678322,0.5478393688302193,0.6680668507533319,799.4139194139194,801.4285714285713,807.8754578754579,836.8864468864467,1115.3113553113546,-0.644409,-0.09375,0.749451,4.351501,-3.4841919999999997,1.143951,17.0,59.0,-42.0
705.540293040293,30.756856047252565,,,,,,,22.48590640736969,22.547806906989678,0.04359333740489299,0.031870478028227275,707.6923076923077,34.21384615384601,0.04834565217391283,38.46153846153845,2.976190476190476,41.66666666666667,8.0,93.75,,,0.05065885021613825,0.020395741702836732,0.0011731116087233624,2.4837954389808914,0.7013770027550614,0.28238114610712,-3.892429139978227,2021-10-21 15:49:09,2021-10-21 15:49:09.051,1.3853401061486599,1.150329919035108,1.411641941158895,1.3887481959997061,0.8417793227662881,0.6783798013618011,0.7499641237057574,0.9871946861151508,1.068562663828742,0.7229939781899987,0.7626166667400172,1.222497753214028,1.095271008659708,0.7550192637182034,0.8267253863321888,1.028758075404494,0.4468101189426454,0.4634871759819978,0.5453599236455491,0.3214353496012753,802.2344322344322,800.6227106227108,803.040293040293,762.3443223443222,647.5091575091575,-0.654297,-0.09320099999999999,0.756409,3.596344,-4.0000919999999995,1.0916139999999999,11.0,65.0,-54.0
706.2357760582613,30.89455263933623,,,,,,,22.552028071382665,22.616464436340884,0.043745380348428516,0.031932718273284165,707.6923076923077,34.21384615384601,0.04834565217391283,38.46153846153845,2.9585798816568047,42.011834319526635,8.04761904761905,93.75,,,0.05128951709864011,0.021192997108360184,0.0012599895743529651,2.4201162693693523,0.6955217746703268,0.2873918842137159,-3.8540844769508658,2021-10-21 15:49:10,2021-10-21 15:49:10.006,1.469143341453148,0.9347409996193088,1.294514203287721,1.4243433283155982,0.8257015296130079,0.2640175722642793,0.4825235789193855,0.7997994137672433,0.7156043095366087,0.4836442957555743,0.4325546559751901,0.7014470676355684,1.2712195255746108,0.7846188160342962,0.8100242706018748,1.1771427590200572,0.8325996177026788,0.5832329100883761,0.6979747286779937,0.7433196979827118,784.9084249084249,809.8901098901099,795.7875457875458,810.2930402930403,797.3992673992674,-0.6541140000000001,-0.099121,0.75116,3.738403,-5.211334,1.0841370000000001,7.000000000000001,69.0,-62.0
706.5999089667729,30.818365736332137,,,,,,,22.355953857207613,22.42236468195456,0.04361501515248757,0.03163877262579562,707.6923076923077,34.21384615384601,0.04834565217391283,46.15384615384608,2.9585798816568047,41.42011834319527,8.04761904761905,132.8125,,,0.051961266043168086,0.02209952595705061,0.001356333669847637,2.35123894259779,0.6889849696803273,0.29303060492826616,-3.812199120595695,2021-10-21 15:49:11,2021-10-21 15:49:11.059,1.4210828188136209,0.9083044892612336,1.4232326761087242,1.3573558783243331,0.9589304217485921,0.3074634154825731,0.7058210338259091,0.9349412384560029,1.019801370777414,0.505770671586377,0.5110377287038871,0.9286604342144392,1.089187733363705,0.8392760651627151,0.9031633337004952,1.068208498575205,0.8590703310601032,0.6047330801447457,0.5725713030169607,0.7405058703698713,790.952380952381,796.5934065934067,786.5201465201468,744.6153846153846,1015.384615384615,-0.660461,-0.102844,0.750671,3.18512,-4.8823550000000004,1.0841370000000001,5.0,71.0,-66.0
706.8681318681319,30.91897823846568,,,,,,,22.351566632218475,22.41707571891564,0.04374080092810535,0.031620560645656916,707.6923076923077,34.21384615384601,0.04834565217391283,46.15384615384608,2.976190476190476,41.07142857142857,8.4,140.625,,,0.05282826002125125,0.02337079420085777,0.0014876202897134757,2.2604392288607933,0.6800170087498307,0.3008340149416637,-3.756268147232265,2021-10-21 15:49:12,2021-10-21 15:49:12.061,1.015144329562333,1.082482472724726,1.458329701845836,0.9779227120742534,0.6226855376802681,0.3917337150107146,0.5738572494942956,0.6638441437420761,1.002633385756283,0.7008190336824424,0.5070902750444508,1.0364027268076619,0.9790574482910096,0.7495727243489086,0.9228693751804712,0.9432429174300658,0.7774820881039176,0.6279618796658979,0.4404689320489045,0.5951461490859407,794.1758241758242,790.5494505494507,821.978021978022,770.8058608058608,538.3150183150183,-0.6608890000000001,-0.09564199999999999,0.757996,3.596344,-5.345917,1.435547,3.0,73.0,-70.0
707.1916249431042,30.83945753951561,,,,,,,22.24539742050404,22.31185373611323,0.043608346665582665,0.03145596841915902,707.6923076923077,34.21384615384601,0.04834565217391283,46.15384615384608,2.9585798816568047,40.23668639053255,8.45,140.625,,,0.05346633640850583,0.02446298495308356,0.0015983483300760007,2.1856014918476414,0.6722985423287108,0.30760344227271275,-3.710594122109644,2021-10-21 15:49:13,2021-10-21 15:49:13.042,1.1157149380305291,1.25156282371516,1.4586214777578619,1.247412493607684,0.6007941728122117,0.7882791583106452,0.7247870354177943,0.7926925841370425,0.8342417674472131,0.6301731527396137,0.3423600973823974,1.06955147006471,0.9346241317425008,0.6938296738825882,0.8113903935653779,0.9538690881460012,0.6193389965850448,0.6512981871419293,0.4475197485289921,0.5664530931419196,809.0842490842491,818.3516483516484,793.3699633699632,827.2161172161173,786.1172161172162,-0.655884,-0.096313,0.755554,4.022522,-5.330963,1.300964,4.0,76.0,-72.0
707.1886446886447,30.93162902373316,,,,,,,22.327775708358622,22.394879409999625,0.04373886551494543,0.03157258798773404,707.6923076923077,34.21384615384601,0.04834565217391283,46.15384615384608,2.976190476190476,40.476190476190474,8.842105263157897,140.625,,,0.05410040372806461,0.025858463674144308,0.0017378671913616207,2.092173936155349,0.6622101115449266,0.3165177139917089,-3.655117316755733,2021-10-21 15:49:14,2021-10-21 15:49:14.003,1.197013823962209,1.146531886942803,1.440687868584045,1.272894891685015,0.7068758531986875,0.7909773050312596,0.8188779964023305,0.7583349315258453,0.6511089657703644,0.6169909286443104,0.8117167832102048,0.6832841786836796,0.9029994946043116,0.8342673486854085,0.8659343647793304,1.0777359719050021,0.9582352335720234,0.6216245190655325,0.5366938805576835,0.8455064315408113,806.2637362637363,797.8021978021977,804.2490842490844,834.4688644688645,940.4395604395604,-0.659302,-0.098694,0.751526,3.6412050000000002,-4.957123,0.6654359999999999,2.0,80.0,-78.0
706.9185252617206,30.947798812652394,,,,,,,22.33230926692481,22.398319395128002,0.04377845212246301,0.03159106526265778,707.6923076923077,34.21384615384601,0.04834565217391283,46.15384615384608,2.9585798816568047,40.828402366863905,9.388888888888891,148.4375,,,0.05436304868022477,0.026689038101224395,0.0018199410965093136,2.0369055068241964,0.6559879138022606,0.3220512250590515,-3.6235023558845234,2021-10-21 15:49:15,2021-10-21 15:49:15.040,1.107216153221559,1.733649065021643,1.4896685179804567,1.330750343228208,0.7547604851434917,1.155266686312612,1.0352742348494608,0.8527063178961912,0.6132847194370121,0.8314900936763674,0.7750435817559694,0.5953046872320835,0.8484220538893238,0.8004195396170517,0.851471661571686,0.9611289863304469,0.9883080009957592,0.4352479126905578,0.5666038308553745,0.8192173890058282,818.7545787545787,821.978021978022,811.5018315018315,808.6813186813188,619.3040293040292,-0.649109,-0.09906000000000001,0.763306,4.022522,-5.5328370000000024,0.657959,0.0,76.0,-76.0
706.8681318681319,31.010519995854484,,,,,,,22.160524097156152,22.225443842796754,0.043870304230435406,0.031350294486454884,707.6923076923077,34.21384615384601,0.04834565217391283,46.15384615384608,2.976190476190476,39.880952380952394,8.842105263157897,140.625,,,0.054530545955180657,0.02799210316854056,0.0019479751458904284,1.9480689116802703,0.6455563271455311,0.33138269558889405,-3.5758328382797666,2021-10-21 15:49:16,2021-10-21 15:49:16.037,1.039488886889037,1.599598133180989,1.053827781365035,1.0986033517194709,0.25051519653727,0.9267736293589358,0.7196462335226819,-0.262284239706699,0.3111638906577485,0.8169917557933265,0.5920470217604267,0.4664832604134068,1.081935012371962,0.7964951865035663,0.8007818694979396,1.055154030470554,0.7362632322849851,0.6187697744971117,0.5147711116722853,0.8413522246785509,794.981684981685,783.6996336996338,782.4908424908424,820.3663003663004,819.5604395604396,-0.642944,-0.09552000000000001,0.768677,3.469238,-4.867401,0.717773,0.0,73.0,-73.0
707.3281747837959,30.77850879905904,,,,,,,22.06256632648793,22.121659992387208,0.04351376050935181,0.031191414555530237,707.6923076923077,34.21384615384601,0.04834565217391283,46.15384615384608,2.9585798816568047,39.05325443786983,8.894736842105264,140.625,,,0.05425801018540485,0.029090358818491712,0.002056930680686321,1.865154380664255,0.6353002727674915,0.3406153824871247,-3.537348471779985,2021-10-21 15:49:17,2021-10-21 15:49:17.025,1.062411590423737,1.207500635802193,1.063079991032146,1.113296067603738,0.3443069275211452,0.3258457912955133,0.2552408832215433,0.22363450687576997,0.4651208482141675,0.4070687232484235,0.6734911891051026,0.7154576702077551,0.9517134192469341,0.8037559573433085,0.7882449887710931,0.9599831339995816,0.5709892283686436,0.5599332552395602,0.4162464631685354,0.6828941376656442,813.1135531135533,799.0109890109891,812.7106227106227,838.901098901099,774.8351648351648,-0.6362300000000001,-0.098816,0.769836,3.8954160000000004,-5.106659,1.413116,0.0,59.0,-59.0
708.1959706959708,29.811676451198448,,,,,,,22.184494384420198,22.24732948857702,0.042095235901866826,0.0313253609203942,707.6923076923077,34.21384615384601,0.04834565217391283,46.15384615384608,2.976190476190476,39.880952380952394,8.4,132.8125,,,0.05371232092359687,0.029752470289625577,0.002123706110367893,1.805306261992164,0.6275647149233499,0.34762229995858385,-3.514843115492311,2021-10-21 15:49:18,2021-10-21 15:49:18.051,1.229041609834103,1.155538731642042,1.11385208714956,1.316408714851414,0.6508976811395305,0.5176491487748721,0.4478781349425635,0.5905664364681492,0.5600461312040552,0.6878099175219562,0.3835061992050358,1.0014445982927809,0.8549600648499152,0.8050044269420014,0.7474789389317185,0.887240283491894,0.6072654581660614,0.5178221949842454,0.5067595789659197,0.6745300143274519,808.2783882783882,805.4578754578755,817.1428571428571,794.5787545787546,602.3809523809524,-0.643066,-0.101074,0.770386,4.082336,-3.730927,1.570129,0.0,53.0,-53.0
708.192990441511,29.484894144211378,,,,,,,22.31653228914001,22.382494718827594,0.041633981897829166,0.03151193613936667,707.6923076923077,34.21384615384601,0.04834565217391283,46.15384615384608,2.9585798816568047,40.23668639053255,8.45,132.8125,,,0.0529307656105618,0.030199440369479438,0.0021683402864551985,1.7527068370464045,0.6205353775337664,0.35404402174836563,-3.4999318855849504,2021-10-21 15:49:19,2021-10-21 15:49:19.063,1.0401744076323372,1.036928899380185,1.027140227329085,1.0761410110733851,0.5872832087883997,0.4193583138770503,0.376358605432149,0.5764893134849763,0.5528275164451664,0.6743359348990818,0.2745223911913265,1.008760755396608,0.9667976595341028,0.7080575918948248,0.7310306945771043,1.000301668901367,0.7930154720988293,0.3373509798583991,0.4681451230540358,0.6336211372901147,818.7545787545787,809.8901098901099,832.4542124542122,832.4542124542122,796.9963369963368,-0.641785,-0.095825,0.764282,4.209442,-5.6300349999999995,1.069183,3.0,56.99999999999999,-53.99999999999999
708.4249084249085,29.200426628884355,,,,,,,21.560822767492546,21.62250884798316,0.04121880284222041,0.030434873916884514,707.6923076923077,34.21384615384601,0.04834565217391283,46.15384615384608,2.380952380952381,39.285714285714285,8.4,132.8125,,,0.05183500321634342,0.03050510745410255,0.0021959097940428235,1.6992237543937012,0.6131706097771404,0.3608533650684076,-3.4898611518766565,2021-10-21 15:49:20,2021-10-21 15:49:20.061,1.020146077985056,1.0896708296528999,1.269059136027483,1.0484764411520329,0.36590600568804704,0.3324412154495803,0.4386005927278059,0.4670142476814594,0.5388742752847749,0.2452057192839815,0.4404982397808516,0.8449570436035625,0.9375869511111224,0.6933122158406182,0.6893881514893906,0.9349914669794778,0.6766071832927145,0.4929556948650857,0.4658451891233553,0.6254250075006613,791.3553113553114,807.8754578754579,793.7728937728937,742.1978021978023,1041.575091575092,-0.63739,-0.09149199999999999,0.763245,4.224396,-3.9701839999999997,1.443024,8.0,63.0,-55.0
708.238507055075,28.911086436153496,,,,,,,21.570162437487575,21.6334287752886,0.04082111625978743,0.030456071256529695,707.6923076923077,34.21384615384601,0.04834565217391283,46.15384615384608,2.366863905325444,39.644970414201175,8.45,132.8125,,,0.05105962660269287,0.030618651009896008,0.002197026775953469,1.6675988300787743,0.6087563791860026,0.365049655951873,-3.486145945572336,2021-10-21 15:49:21,2021-10-21 15:49:21.072,1.000966651365428,1.06467508707956,1.292221649097886,0.9488735565958736,0.3762263025853489,0.1981162974272119,0.3527735119583849,0.1608906523806375,0.5856085606670949,0.3791141226806986,0.3044909203104404,0.5268066201588061,0.9406968419640228,0.736579243605884,0.8845826845639709,1.001838056670302,0.7511662739092739,0.6076446575711778,0.5220543266724168,0.7155322936751679,794.981684981685,807.4725274725273,803.8461538461539,768.7912087912088,617.2893772893772,-0.638977,-0.096558,0.768616,3.858032,-4.351501,0.620575,10.0,72.0,-62.0
707.9198907601274,28.701419998572536,,,,,,,21.594641540243725,21.65608344855904,0.04054331623279359,0.030504357656989313,707.6923076923077,34.21384615384601,0.04834565217391283,46.15384615384608,2.366863905325444,39.644970414201175,8.45,132.8125,,,0.050506495302139416,0.030662100531692243,0.0021818673875768483,1.647196194205158,0.6059533846617767,0.3678695876019644,-3.4847278973929603,2021-10-21 15:49:22,2021-10-21 15:49:22.021,1.097873213281507,0.9247331454800098,1.2021581984218992,1.1396529462237759,0.2064489567005446,0.0979123720313647,0.299671881756622,0.21819828779482608,0.5062790295295958,0.4269320817899233,0.07680178695414165,0.7945447405971972,0.9233852726104318,0.8016481363090342,0.910916030967051,1.07413686007463,0.7733116878602952,0.5729941406272244,0.6436401771571099,0.7639474264688432,855.0183150183151,800.2197802197803,799.4139194139194,864.6886446886447,706.7399267399268,-0.6410520000000001,-0.097717,0.764404,3.4841919999999997,-4.919739,1.143951,20.0,81.0,-61.0
707.051282051282,28.328040604103755,,,,,,,21.71638036933259,21.770665883154074,0.040065043828106855,0.03071401031383395,707.6923076923077,34.21384615384601,0.04834565217391283,40.38461538461536,2.380952380952381,39.880952380952394,8.4,125.0,,,0.050209745355903314,0.030627202454845657,0.002140079879594952,1.6393839897695068,0.6051041686293885,0.36910459807190416,-3.4858666958102225,2021-10-21 15:49:23,2021-10-21 15:49:23.054,1.331318343660043,0.9969753232335304,1.064208424927402,1.266962555253876,0.1649794873237718,0.2898799708483867,0.4304573322620349,0.2313169261895142,0.7366137729187484,0.3464361359292384,0.3896605259847264,0.7915307734474063,0.9079216367590918,0.6454776530331063,0.7667023373064578,1.0095848209715592,0.8011212124278283,0.4728802329859324,0.7079701634970773,0.7640987273525248,794.1758241758242,797.3992673992674,786.9230769230769,828.8278388278387,837.6923076923077,-0.647217,-0.10437,0.765442,4.1346739999999995,-4.9646,0.56076,28.000000000000004,86.0,-58.0
706.1447428311333,27.906930336704868,,,,,,,21.488364029699092,21.548640888814106,0.03952012759426364,0.030430537432801923,707.6923076923077,34.21384615384601,0.04834565217391283,38.46153846153845,2.366863905325444,39.05325443786983,8.45,125.0,,,0.05037112318698825,0.03056545459861858,0.0020914598905520613,1.6479755936384728,0.6066760650595512,0.3681341322052623,-3.4878848424362445,2021-10-21 15:49:24,2021-10-21 15:49:24.009,1.0337085534213208,1.04990757573837,1.102089790154029,0.9882228832873384,0.3334094571661189,0.07521258377878448,0.4449269167464182,0.5478733650974772,0.6702618880073691,0.2621472261217832,0.5639696228302603,0.7543118195208983,1.071621202980981,0.6483248634623756,0.6735636039804677,0.8451026299023221,1.0863802863682108,0.6830540642837205,0.6628285703906672,0.9867923730229892,819.96336996337,816.7399267399268,803.040293040293,826.8131868131868,779.6703296703297,-0.645325,-0.098816,0.763794,3.4841919999999997,-5.001983999999998,0.695343,34.0,88.0,-54.0
705.7350933090578,27.824136583917102,,,,,,,21.082964830162467,21.145793789846827,0.039425751741287235,0.029873765709040268,707.6923076923077,34.21384615384601,0.04834565217391283,38.46153846153845,1.7751479289940828,38.46153846153847,8.45,125.0,,,0.050945850974076834,0.03048516267767065,0.002030009718985537,1.6711687424057255,0.6104148848951428,0.3652622679002613,-3.4905151833180565,2021-10-21 15:49:25,2021-10-21 15:49:25.031,0.9277674870761932,1.206438406628771,1.186046264392704,0.9434218276619488,0.5643263177908795,0.3256159640341131,0.4461436438893095,0.5292078619825528,0.48867268589764,0.3959919424091339,0.3858727225575565,0.6021895088669929,1.1979831657849858,0.8158871649694025,0.6515256614340394,1.0021618776900552,1.273196182534706,1.02577746978451,0.945230145181943,1.202495648454742,780.8791208791209,772.4175824175826,780.4761904761905,776.4468864468864,575.7875457875458,-0.64978,-0.098389,0.755432,4.411316,-4.4487,0.814972,42.0,84.0,-42.0
705.6895766954939,27.852510118720637,,,,,,,21.007653343812738,21.07000619936639,0.039468501503372826,0.02976897213387293,707.6923076923077,34.21384615384601,0.04834565217391283,38.46153846153845,1.7751479289940828,37.8698224852071,8.45,125.0,,,0.05230634734978909,0.030407495181404124,0.0019430094688085828,1.720179417533126,0.6178631276035161,0.3591852810851446,-3.4930661489390427,2021-10-21 15:49:26,2021-10-21 15:49:26.000,0.9222281797866708,1.056319463426014,1.218429629679957,0.9143198880705832,0.4621521168911352,0.18758363592417496,0.487936361973285,0.369500931004374,0.6721110500340592,0.3770931122189075,0.4869123227079645,0.9303895774993884,1.278795008379511,0.9720457923833492,0.8248100681254052,1.177905598364961,1.173114044776147,0.8905618053948025,0.9958623882286056,1.1941277089845839,815.934065934066,837.2893772893773,791.3553113553114,856.6300366300368,908.6080586080586,-0.6503909999999999,-0.097717,0.760376,3.5813900000000003,-4.80011,1.143951,48.0,79.0,-31.0
705.3254437869823,28.225933052838073,,,,,,,21.182963643408087,21.24132710587666,0.04001831112357075,0.03003289308503327,707.6923076923077,34.21384615384601,0.04834565217391283,38.46153846153845,1.7751479289940828,38.46153846153847,8.894736842105264,125.0,,,0.05384776107499921,0.030381093328181508,0.0018685908612281286,1.7724102451918682,0.6254280938259026,0.3528686970313684,-3.4939347940426733,2021-10-21 15:49:27,2021-10-21 15:49:27.012,0.7398499816927768,1.054648512761186,1.07215555874609,0.7166956863727413,0.6232424595153369,0.3252834143643024,0.5302102281407323,0.6169054665644602,0.9479539590307184,0.5431832407064551,0.4860731827235691,1.118205761697113,1.247598296638125,1.026515652734173,0.8735449388959132,1.20131991127613,1.103932380759395,0.7468347093764051,0.5584043416770558,1.02400185320604,799.0109890109891,794.1758241758242,800.6227106227108,817.5457875457878,776.0439560439563,-0.653564,-0.108582,0.7600100000000001,4.381409,-4.732819,0.8747860000000001,59.0,73.0,-14.0
704.3695949021393,29.09518545595534,,,,,,,21.182963643408087,21.24132710587666,0.04130670271194434,0.03007364854576256,700.0,34.21384615384618,0.04887692307692311,38.46153846153845,1.7751479289940828,38.46153846153847,8.894736842105264,125.0,,,0.05575647934845069,0.03042192227452957,0.0017943401217452156,1.8327730524488328,0.6337926753521199,0.3458107781022245,-3.4925918030057974,2021-10-21 15:49:28,2021-10-21 15:49:28.024,0.9710124546742172,1.031341374522806,1.28144516972949,0.7867246409798896,0.4857049078047481,0.1017453667183298,0.6282320763941021,0.6029315261593254,0.9387265259207412,0.2990109545240893,0.5389591268908225,0.9290732593687828,1.014111120655918,1.044405535273828,0.8119588185969058,0.957092898085473,0.9165656146368916,0.6244411361258503,0.6143359176848857,0.8423064673911022,800.2197802197803,809.4871794871796,796.9963369963368,765.5677655677656,649.9267399267401,-0.646606,-0.10119600000000001,0.7565310000000001,3.551483,-5.405730999999999,0.792542,71.0,74.0,-3.0
703.9599453800638,29.42468104602469,,,,,,,20.982489445768497,21.035394112166763,0.041798800115166325,0.029806368364382118,700.0,34.21384615384618,0.04887692307692311,38.46153846153845,1.7751479289940828,37.8698224852071,8.894736842105264,125.0,,,0.05857663251352861,0.030595541069418964,0.001707132468048852,1.9145480179815315,0.6445541351367566,0.3366612532478014,-3.4869009973271647,2021-10-21 15:49:29,2021-10-21 15:49:29.002,0.957233044174007,1.057686207769865,1.2489091173755242,0.8901215660795794,0.4183539211627089,0.1063221687165131,0.6214537538506908,0.5419532253138569,0.9486062778745448,0.4605627878771294,0.4780379631432559,0.7611030974315183,1.058898629819792,0.9877842490281848,0.7335280447739373,0.9497648775257208,0.8044614685106527,0.5348018684811481,0.6487331104773204,0.8411411194540401,793.3699633699632,808.2783882783882,793.7728937728937,824.7985347985347,724.0659340659341,-0.647522,-0.095337,0.757568,3.9402769999999996,-4.216919,0.530853,83.0,81.0,2.0
