HRV_MeanNN,HRV_SDNN,HRV_SDANN1,HRV_SDNNI1,HRV_SDANN2,HRV_SDNNI2,HRV_SDANN5,HRV_SDNNI5,HRV_RMSSD,HRV_SDSD,HRV_CVNN,HRV_CVSD,HRV_MedianNN,HRV_MadNN,HRV_MCVNN,HRV_IQRNN,HRV_pNN50,HRV_pNN20,HRV_HTI,HRV_TINN,HRV_ULF,HRV_VLF,HRV_LF,HRV_HF,HRV_VHF,HRV_LFHF,HRV_LFn,HRV_HFn,HRV_LnHF,Time,TimeStamp,Delta_TP9,Delta_AF7,Delta_AF8,Delta_TP10,Theta_TP9,Theta_AF7,Theta_AF8,Theta_TP10,Alpha_TP9,Alpha_AF7,Alpha_AF8,Alpha_TP10,Beta_TP9,Beta_AF7,Beta_AF8,Beta_TP10,Gamma_TP9,Gamma_AF7,Gamma_AF8,Gamma_TP10,RAW_TP9,RAW_AF7,RAW_AF8,RAW_TP10,AUX_RIGHT,Accelerometer_X,Accelerometer_Y,Accelerometer_Z,Gyro_X,Gyro_Y,Gyro_Z,Attention,Meditation,A_M
668.3283197249677,49.70003870990271,,,,,,,24.420686358344213,24.4871199826227,0.07436470555423327,0.03653995444693093,661.5384615384615,45.61846153846162,0.06895813953488385,69.23076923076928,3.910614525139665,39.66480446927375,12.785714285714285,78.125,,,0.05704282580376225,0.011816040466752204,0.00047991381695838115,4.827575359467369,0.822668436505533,0.17041027332534456,-4.438297309016861,2021-10-21 16:16:20,2021-10-21 16:16:20.058,1.0193642781958119,0.9713456268374274,1.386855962209425,0.9203238770822044,0.7347569413126198,0.49177570548037897,0.6783967179728987,0.6456095267117989,1.0636799301358209,0.6328319843003928,0.5032262650087023,0.9984719204766284,1.300396543706207,1.0055816032159381,0.3780516646152284,1.2172063562220081,0.9979364798700257,0.6484326672950415,-0.006644683023988782,1.146969266437381,805.054945054945,798.2051282051282,806.6666666666667,887.2527472527472,884.8351648351648,-0.35199,-0.0224,0.952209,1.173859,-3.902893,8.665619,33.0,53.0,-20.0
668.5431886549203,49.51922915777236,,,,,,,24.576730670414936,24.6460205786969,0.0740703517709946,0.03676162002317642,661.5384615384615,45.61846153846162,0.06895813953488385,69.23076923076928,3.910614525139665,40.782122905027926,11.933333333333335,78.125,,,0.05293415121449449,0.011670684271468168,0.0004475880146365076,4.535651036666714,0.8137152832439354,0.17940429646499906,-4.450675199315397,2021-10-21 16:16:21,2021-10-21 16:16:21.016,1.0193642781958119,0.9305518402678984,0.9825648941245856,0.9203238770822044,0.7347569413126198,0.3432175728202814,0.3783658525989064,0.6456095267117989,1.0636799301358209,0.6160719324667615,0.3551695132452459,0.9984719204766284,1.300396543706207,0.9874849175442432,0.5853471871642774,1.2172063562220081,0.9979364798700257,0.6656374456833901,0.1435910264025307,1.146969266437381,792.5641025641023,840.5128205128206,738.5714285714287,857.8388278388278,1083.479853479854,-0.41156000000000004,-0.085327,0.895325,18.422852,4.598236,-40.142975,37.0,46.0,-9.0
668.7121866897147,49.62060118733288,,,,,,,24.612124947143432,24.68133105505451,0.07420322550567937,0.03680525858064489,661.5384615384615,45.61846153846162,0.06895813953488385,69.23076923076928,3.9325842696629216,41.01123595505618,11.866666666666667,78.125,,,0.05115413702468265,0.011650582554520112,0.00043536944469972356,4.390693494106543,0.8088878085757946,0.18422780129415395,-4.452399095540782,2021-10-21 16:16:22,2021-10-21 16:16:22.008,1.0193642781958119,0.9305518402678984,0.9825648941245856,0.9203238770822044,0.7347569413126198,0.3432175728202814,0.3783658525989064,0.6456095267117989,1.0636799301358209,0.6160719324667615,0.3551695132452459,0.9984719204766284,1.300396543706207,0.9874849175442432,0.5853471871642774,1.2172063562220081,0.9979364798700257,0.6656374456833901,0.1435910264025307,1.146969266437381,774.0293040293042,763.5531135531136,806.6666666666667,909.0109890109892,855.8241758241759,-0.5093989999999999,-0.070862,0.872009,4.919739,-7.6188660000000015,-5.443115,39.0,45.0,-6.0
668.5393258426966,49.75304841731175,,,,,,,24.875580476880923,24.94611157030237,0.07442052620404614,0.0372088514696202,661.5384615384615,51.32076923076927,0.07757790697674424,69.23076923076928,4.49438202247191,41.01123595505618,12.714285714285715,62.5,,,0.048237541358092516,0.01172278590876516,0.0004188639289219145,4.114853050589722,0.7989100284845194,0.19415274826643525,-4.446220817554715,2021-10-21 16:16:23,2021-10-21 16:16:23.030,1.0193642781958119,0.9305518402678984,1.3220935251624728,0.9203238770822044,0.7347569413126198,0.3432175728202814,0.7117295675884014,0.6456095267117989,1.0636799301358209,0.6160719324667615,0.6634977951537504,0.9984719204766284,1.300396543706207,0.9874849175442432,1.15821995811207,1.2172063562220081,0.9979364798700257,0.6656374456833901,1.3300484050099228,1.146969266437381,813.9194139194141,767.9853479853481,811.5018315018315,654.3589743589744,491.978021978022,-0.522705,-0.077087,0.858582,-0.9944149999999999,-8.022614,11.058197,49.0,46.0,3.0
668.5825410544512,49.75027382115639,,,,,,,24.86886007138833,24.939257845319236,0.0744115659118065,0.03719639467726235,665.3846153846154,51.32076923076927,0.07712947976878619,69.23076923076928,4.49438202247191,41.01123595505618,11.866666666666667,140.625,,,0.04675255673700476,0.011841603795297232,0.00041313106448096767,3.9481608695244494,0.7923182961265364,0.2006803477138888,-4.436136203015682,2021-10-21 16:16:24,2021-10-21 16:16:24.020,1.1000173745878201,0.9305518402678984,1.3784192270927271,1.4920817709136,0.9277744294210633,0.3432175728202814,0.8473436583329162,0.8026892205489848,1.072676215507132,0.6160719324667615,0.6418266268490791,0.4282062835311235,1.371368425320096,0.9874849175442432,1.138068483263074,1.17835500790353,1.146206164330405,0.6656374456833901,1.2680712761723438,0.709344737931845,802.6373626373628,808.6813186813188,805.4578754578755,917.4725274725276,883.6263736263736,-0.514343,-0.0271,0.861267,-1.114044,-7.858124,6.295471,56.00000000000001,40.0,16.000000000000007
667.9845294370434,50.039216307460954,,,,,,,25.138404200220453,25.207491296391808,0.07491074134551058,0.037633213184452514,661.5384615384615,57.02307692307691,0.08619767441860463,69.23076923076928,4.46927374301676,41.89944134078213,11.933333333333335,140.625,,,0.045644783325524456,0.012013504038673763,0.0004114071349690034,3.7994562767519935,0.7860345007700884,0.20688078596394285,-4.421723925354537,2021-10-21 16:16:25,2021-10-21 16:16:25.004,1.1042296107131209,0.9305518402678984,0.6600776361887081,1.077553696850319,0.6411122371802528,0.3432175728202814,0.4442703071608937,0.3430990870219704,0.9287737659179244,0.6160719324667615,0.5254635578174419,0.6529760465822644,1.225163844256173,0.9874849175442432,1.197198202615779,1.090510132984798,1.088310850532046,0.6656374456833901,1.077969961779973,1.116544428804179,896.1172161172162,852.1978021978023,740.5860805860806,915.4578754578756,769.1941391941392,-0.29199200000000003,-0.06640599999999999,0.9447629999999999,5.166473000000001,-50.072174,-11.604004,55.00000000000001,37.0,18.000000000000007
667.8556080790718,50.244662123848315,,,,,,,25.434198974900852,25.504620352956447,0.07523282205919504,0.03808338010076204,661.5384615384615,57.02307692307691,0.08619767441860463,69.23076923076928,4.46927374301676,41.34078212290503,11.933333333333335,109.375,,,0.044794618097042035,0.012301046165174186,0.0004145565498995998,3.641529142770089,0.7788983847477254,0.2138932174397545,-4.398070966141455,2021-10-21 16:16:26,2021-10-21 16:16:26.019,1.1042296107131209,1.803235676186343,1.5385117757307087,1.099246451886769,0.6411122371802528,0.869141285507187,0.8340834726795493,0.4158653215019628,0.9287737659179244,0.918830706594705,0.5953478943858717,0.6005245380143595,1.225163844256173,1.174979875722759,1.1522183427523969,1.080384182138904,1.088310850532046,1.097378551618456,0.8788874137958593,1.160171778334842,796.1904761904763,770.8058608058608,796.1904761904763,696.2637362637363,755.4945054945055,-0.276672,-0.020569,0.989807,23.454742,11.177826,-33.29422,61.0,33.0,28.0
667.7696605070906,50.13624777890175,,,,,,,25.532035721459998,25.604021856333972,0.07508015225014761,0.03823479446800787,661.5384615384615,57.02307692307691,0.08619767441860463,69.23076923076928,4.46927374301676,41.89944134078213,11.933333333333335,109.375,,,0.044567650747821166,0.012591033782544135,0.00042144584891822646,3.539633958381444,0.7740109383957898,0.21866976854005526,-4.374770322895397,2021-10-21 16:16:27,2021-10-21 16:16:27.009,1.1042296107131209,1.803235676186343,1.9047204932517128,1.110536689331344,0.6411122371802528,0.869141285507187,1.097073613980626,0.4593894244760205,0.9287737659179244,0.918830706594705,0.3308681052338672,0.4514457082675318,1.225163844256173,1.174979875722759,0.9681678160682686,1.08085393065909,1.088310850532046,1.097378551618456,0.3991215920347169,1.22300481483656,823.1868131868132,877.1794871794873,737.7655677655678,869.5238095238095,736.959706959707,-0.358093,-0.07147200000000001,0.935242,11.977844000000001,-7.521667,-18.138733,72.0,33.0,39.0
667.3725151253241,50.0012113634912,,,,,,,25.44032710163421,25.51115822231452,0.07492249115788295,0.038120130099839125,661.5384615384615,57.02307692307691,0.08619767441860463,69.23076923076928,4.49438202247191,41.57303370786517,11.866666666666667,109.375,,,0.044885854192323583,0.01303193793030267,0.0004363760361433708,3.444296192353112,0.7691970532455961,0.22332488563362712,-4.340352170561855,2021-10-21 16:16:28,2021-10-21 16:16:28.000,1.1042296107131209,1.803235676186343,1.9047204932517128,1.110536689331344,0.6411122371802528,0.869141285507187,1.097073613980626,0.4593894244760205,0.9287737659179244,0.918830706594705,0.3308681052338672,0.4514457082675318,1.225163844256173,1.174979875722759,0.9681678160682686,1.08085393065909,1.088310850532046,1.097378551618456,0.3991215920347169,1.22300481483656,780.8791208791209,806.6666666666667,792.5641025641023,771.2087912087912,447.2527472527473,-0.272461,-0.024658000000000003,0.953003,-7.506714,-16.90506,23.851013000000002,89.0,30.0,59.0
667.1250537172325,49.36801105961806,,,,,,,25.375315862913123,25.44597400783801,0.07400113484651585,0.038036820415484944,661.5384615384615,57.02307692307691,0.08619767441860463,69.23076923076928,4.46927374301676,41.34078212290503,11.933333333333335,109.375,,,0.045604034789971305,0.013436418229767405,0.0004530281652469664,3.394061870516868,0.7665383480951921,0.22584689888945925,-4.309786480166125,2021-10-21 16:16:29,2021-10-21 16:16:29.102,1.1042296107131209,1.803235676186343,1.9047204932517128,1.110536689331344,0.6411122371802528,0.869141285507187,1.097073613980626,0.4593894244760205,0.9287737659179244,0.918830706594705,0.3308681052338672,0.4514457082675318,1.225163844256173,1.174979875722759,0.9681678160682686,1.08085393065909,1.088310850532046,1.097378551618456,0.3991215920347169,1.22300481483656,849.3772893772895,793.3699633699632,755.8974358974359,630.1831501831502,122.4908424908425,-0.18457,-0.046082,1.009766,2.8411869999999997,-9.652557,23.15567,100.0,32.0,68.0
666.5946413137425,49.07493639065047,,,,,,,25.44032710163421,25.511902767136288,0.07362035838441827,0.03816461388212742,661.5384615384615,57.02307692307691,0.08619767441860463,69.23076923076928,4.49438202247191,41.57303370786517,11.866666666666667,109.375,,,0.0466867631378183,0.013876327523161593,0.00047339275530980255,3.3644898522243265,0.7648992950560176,0.22734480668750676,-4.277570946581444,2021-10-21 16:16:30,2021-10-21 16:16:30.037,1.1042296107131209,0.8732703439109556,1.20965653113082,1.110536689331344,0.6411122371802528,0.8752062698535035,0.6461758615657771,0.4593894244760205,0.9287737659179244,1.014788072911858,0.878531049026932,0.4514457082675318,1.225163844256173,1.211105310533634,1.388344409005869,1.08085393065909,1.088310850532046,0.9628826544536828,1.2320052050983359,1.22300481483656,809.0842490842491,804.6520146520148,800.2197802197803,761.1355311355313,364.6520146520147,0.085754,-0.020203,1.009033,5.263672,3.6636349999999998,22.497711,96.0,36.0,60.0
666.4804469273743,48.72251865096693,,,,,,,25.394958737119907,25.46526737498588,0.0731041981435296,0.03810308142451352,661.5384615384615,57.02307692307691,0.08619767441860463,69.23076923076928,4.46927374301676,41.34078212290503,11.933333333333335,109.375,,,0.048368227021910334,0.014428436802634153,0.000503572717221948,3.352284636481196,0.7641081560571462,0.2279365384853508,-4.238554241750225,2021-10-21 16:16:31,2021-10-21 16:16:31.005,1.232201224471603,0.7948252864643943,1.104462453160972,1.110536689331344,0.8491072660719039,0.8331711517085858,0.5966062571241777,0.4593894244760205,1.2236239596748841,1.1182105393406092,0.8534602992401986,0.4514457082675318,1.195040895393718,1.1245961114885772,1.36451361673066,1.08085393065909,1.018871254146198,0.9877517754895616,1.099388199768861,1.22300481483656,835.6776556776558,794.981684981685,800.2197802197803,650.7326007326008,487.1428571428572,0.030945,0.007812,1.018433,6.317901999999999,-8.276825,-30.99884,89.0,42.0,47.0
666.0936828534592,48.48351510268992,,,,,,,25.44726560765332,25.515369215587157,0.07278783202836094,0.03820373359290922,661.5384615384615,45.61846153846162,0.06895813953488385,65.38461538461547,4.46927374301676,41.89944134078213,11.933333333333335,109.375,,,0.04983501487942015,0.014837484907404528,0.0005304286299620928,3.3587238801200323,0.7643063906710962,0.2275585662742189,-4.210598536239487,2021-10-21 16:16:32,2021-10-21 16:16:32.003,0.901395227905754,1.3319614787955412,1.4604502056795892,1.110536689331344,0.8805138370848091,1.0440331511876109,1.044247431771557,0.4593894244760205,0.9527700899202832,1.166697311662315,0.9939409739537626,0.4514457082675318,1.170328940181165,1.1695554434553992,1.2421724074295892,1.08085393065909,1.0816255071552672,1.032868067888995,1.063399392884317,1.22300481483656,799.0109890109891,832.8571428571429,799.0109890109891,864.6886446886447,939.2307692307692,-0.399902,-0.09765599999999999,0.9319459999999999,9.398346,25.80246,-34.610138,74.0,52.0,22.0
665.0623119896862,48.18504955683324,,,,,,,25.532035721459998,25.599620359249982,0.07245193222974344,0.03839044140852768,661.5384615384615,45.61846153846162,0.06895813953488385,65.38461538461536,4.46927374301676,41.89944134078213,11.933333333333335,62.5,,,0.05127957422564036,0.01518904211555462,0.0005583122796434675,3.3760900677947667,0.7650592870773093,0.22661104168261706,-4.187181024563319,2021-10-21 16:16:33,2021-10-21 16:16:33.048,0.8485241292623139,1.566548714518396,1.625848488552801,1.110536689331344,0.906432649701598,0.935931482554785,1.089146132538126,0.4593894244760205,0.7598982567175869,0.9713055437783832,0.958138018324458,0.4514457082675318,1.206743654889805,1.288672247963495,0.9504770312900492,1.08085393065909,1.044169900854297,1.054973219310554,1.0757985585156558,1.22300481483656,782.0879120879123,838.901098901099,808.2783882783882,690.6227106227108,568.5347985347987,-0.442688,-0.080078,0.895874,3.603821,-11.544189,-12.329253999999999,66.0,54.0,12.0
664.7614954877524,48.133762145078066,,,,,,,25.63598337054336,25.706509508890022,0.07240756643066565,0.0385641821082516,661.5384615384615,45.61846153846162,0.06895813953488385,65.38461538461536,4.46927374301676,42.45810055865922,11.933333333333335,62.5,,,0.05283413561569485,0.01550764085864541,0.0005931089891595428,3.4069744132770627,0.7664353869662972,0.22496071117513525,-4.166422417898837,2021-10-21 16:16:34,2021-10-21 16:16:34.007,1.231132920413904,1.566548714518396,1.1681148033150959,1.110536689331344,0.9264754216721974,0.935931482554785,1.002021087501213,0.4593894244760205,1.005658950252482,0.9713055437783832,0.948129027200008,0.4514457082675318,1.1769487276255401,1.288672247963495,1.307083673500289,1.08085393065909,1.2430071580014628,1.054973219310554,1.153216341617989,1.22300481483656,819.5604395604396,763.1501831501831,802.2344322344322,867.5091575091576,636.2271062271062,-0.356079,-0.172791,0.934692,7.6412960000000005,-5.831909,12.718048,64.0,55.00000000000001,8.999999999999991
664.0449438202247,47.72461482883643,,,,,,,25.407454201094428,25.473232146532997,0.07186955532599733,0.03826164845850091,661.5384615384615,45.61846153846162,0.06895813953488385,67.30769230769226,3.9325842696629216,42.13483146067416,11.866666666666667,62.5,,,0.05259263182488483,0.015316515163852615,0.0006061934603717019,3.433720481601772,0.7676037436309441,0.22354869819597845,-4.178823610267267,2021-10-21 16:16:35,2021-10-21 16:16:35.000,1.4416861814256499,1.566548714518396,1.328286014970562,1.110536689331344,1.022736239318561,0.935931482554785,0.8709285567410431,0.4593894244760205,1.003400156199562,0.9713055437783832,1.013661547804477,0.4514457082675318,1.126974373859108,1.288672247963495,1.2386603543551962,1.08085393065909,1.21364074976494,1.054973219310554,1.383214153040802,1.22300481483656,898.9377289377289,737.7655677655678,826.4102564102565,853.809523809524,545.5677655677656,-0.577332,-0.084229,0.837341,12.119904,33.197021,-5.278625,75.0,55.00000000000001,19.999999999999996
664.1168886978943,47.47422840791421,,,,,,,26.27001502187209,26.33713211290292,0.07148474796506818,0.03955631225307128,661.5384615384615,45.61846153846162,0.06895813953488385,65.38461538461536,5.027932960893856,42.45810055865922,11.933333333333335,62.5,,,0.05094169686594637,0.014733396374380594,0.0006040067172915315,3.457566440995721,0.7685936727945992,0.22229324755166727,-4.2176384997716365,2021-10-21 16:16:36,2021-10-21 16:16:36.013,1.4815973251466417,1.566548714518396,1.3236169330372671,1.110536689331344,1.0041725513372328,0.935931482554785,0.7014013007133733,0.4593894244760205,0.9571964957209392,0.9713055437783832,0.8238686979533032,0.4514457082675318,1.124329988637863,1.288672247963495,1.1221865481990658,1.08085393065909,1.220678637369733,1.054973219310554,1.513106132230512,1.22300481483656,859.8534798534797,800.2197802197803,750.2564102564102,649.1208791208793,505.6776556776557,-0.4971310000000001,-0.069275,0.8370360000000001,2.818756,-11.432037,-2.392578,100.0,65.0,35.0
663.9879673399226,47.13325966464632,,,,,,,26.969339189150485,27.044166463919872,0.07098511115114363,0.04061721072626573,661.5384615384615,45.61846153846162,0.06895813953488385,65.38461538461536,5.58659217877095,42.45810055865922,11.933333333333335,62.5,,,0.04934969369665836,0.014190898709304525,0.0006077185249340265,3.4775594349286223,0.7693062058924639,0.22122014599248802,-4.255154455826655,2021-10-21 16:16:37,2021-10-21 16:16:37.000,1.4815973251466417,1.566548714518396,1.3236169330372671,1.110536689331344,1.0041725513372328,0.935931482554785,0.7014013007133733,0.4593894244760205,0.9571964957209392,0.9713055437783832,0.8238686979533032,0.4514457082675318,1.124329988637863,1.288672247963495,1.1221865481990658,1.08085393065909,1.220678637369733,1.054973219310554,1.513106132230512,1.22300481483656,836.4835164835165,753.0769230769231,834.0659340659341,689.0109890109891,525.8241758241759,-0.769897,0.071228,0.668457,9.069366,-55.762024,-14.42276,100.0,83.0,17.0
663.8461538461539,46.04556844843714,,,,,,,26.992053577525773,27.064337040950534,0.06936180646925641,0.040660103882715536,661.5384615384615,45.61846153846162,0.06895813953488385,63.46153846153846,5.5555555555555545,42.77777777777778,12.0,62.5,,,0.04845696964024723,0.013919818764160036,0.000616387845176072,3.481149464748169,0.7692415675033968,0.22097343859926585,-4.274441643976712,2021-10-21 16:16:38,2021-10-21 16:16:38.042,1.4815973251466417,1.566548714518396,1.3236169330372671,1.110536689331344,1.0041725513372328,0.935931482554785,0.7014013007133733,0.4593894244760205,0.9571964957209392,0.9713055437783832,0.8238686979533032,0.4514457082675318,1.124329988637863,1.288672247963495,1.1221865481990658,1.08085393065909,1.220678637369733,1.054973219310554,1.513106132230512,1.22300481483656,769.5970695970697,854.6153846153846,779.2673992673992,843.7362637362637,837.2893772893773,-0.648438,-0.024475,0.7712399999999999,1.1589049999999999,-7.67868,3.551483,100.0,100.0,0.0
662.7847013321873,44.631705341903505,,,,,,,26.83960389941628,26.9150011989674,0.06733967342968908,0.04049520733575937,661.5384615384615,45.61846153846162,0.06895813953488385,65.38461538461536,5.58659217877095,41.89944134078213,11.933333333333335,62.5,,,0.04788601138545806,0.01379114994426189,0.0006303592373307555,3.4722275937099853,0.7685430418295446,0.2213400536363966,-4.283728200931982,2021-10-21 16:16:39,2021-10-21 16:16:39.015,1.4815973251466417,1.566548714518396,1.3236169330372671,1.110536689331344,1.0041725513372328,0.935931482554785,0.7014013007133733,0.4593894244760205,0.9571964957209392,0.9713055437783832,0.8238686979533032,0.4514457082675318,1.124329988637863,1.288672247963495,1.1221865481990658,1.08085393065909,1.220678637369733,1.054973219310554,1.513106132230512,1.22300481483656,742.6007326007326,787.3260073260074,834.8717948717949,805.8608058608058,828.021978021978,-0.308838,-0.076599,0.9649049999999999,-0.643005,-15.319977,-9.039458999999999,100.0,100.0,0.0
662.4786324786327,44.294711394355076,,,,,,,26.82004966372784,26.894038437251954,0.06686209822138489,0.04048439956981237,661.5384615384615,45.61846153846162,0.06895813953488385,63.46153846153846,5.5555555555555545,42.22222222222222,12.0,62.5,,,0.047646894718848164,0.013832406895857777,0.0006554376891737173,3.44458452368954,0.7668318118439924,0.22261953700663686,-4.280741114040054,2021-10-21 16:16:40,2021-10-21 16:16:40.032,1.4815973251466417,0.4700079782428122,0.9660211789138315,1.110536689331344,1.0041725513372328,-0.09846818638890062,0.5165284267273591,0.4593894244760205,0.9571964957209392,0.528543341327801,0.5895739240990301,0.4514457082675318,1.124329988637863,1.3562699804354599,1.3677151348261058,1.08085393065909,1.220678637369733,1.5900363698703348,1.375826127576437,1.22300481483656,701.5018315018315,804.2490842490844,754.2857142857142,1265.201465201465,1624.6153846153852,-0.5783689999999999,-0.125854,0.8236690000000001,0.284119,23.604279000000002,-2.534637,95.0,90.0,5.0
662.0940170940172,44.267650067755746,,,,,,,26.82004966372784,26.89403843725195,0.06686006658397238,0.0405079172614233,661.5384615384615,45.61846153846162,0.06895813953488385,63.46153846153846,5.5555555555555545,42.22222222222222,12.0,62.5,,,0.04778459553557896,0.014016925682387585,0.0006810221478302902,3.409063914465982,0.7647671327306502,0.2243334686350252,-4.267489702278061,2021-10-21 16:16:41,2021-10-21 16:16:41.000,1.4815973251466417,0.3091006758200506,0.6065617401521833,1.110536689331344,1.0041725513372328,-0.08719916662830955,0.3636167421656287,0.4593894244760205,0.9571964957209392,0.3536897898054605,0.8463327906406677,0.4514457082675318,1.124329988637863,1.248414778007146,1.3505121052143312,1.08085393065909,1.220678637369733,1.6250385448283569,1.5090763567636298,1.22300481483656,753.0769230769231,833.6630036630037,824.3956043956044,871.1355311355313,538.7179487179487,-0.614319,-0.091675,0.800415,9.458160000000001,-13.585358,-4.867401,86.0,97.0,-11.0
661.3247863247864,44.84927914445855,,,,,,,26.82004966372784,26.894038437251954,0.06781732678386622,0.04055503470961107,661.5384615384615,45.61846153846162,0.06895813953488385,69.23076923076917,5.5555555555555545,42.22222222222222,12.0,62.5,,,0.04821672953193015,0.014353869158999678,0.000711817802078623,3.3591451195372595,0.7619293352562985,0.2268223932407119,-4.243735745314694,2021-10-21 16:16:42,2021-10-21 16:16:42.011,1.47982377154064,0.2869963192028762,0.4804627305972136,1.110536689331344,0.9409033507660234,-0.04026406109144525,0.4680961092723724,0.4593894244760205,1.1283862710418178,0.3425858546135502,0.8454347947036306,0.4514457082675318,1.1880906755458278,1.2353911917248601,1.3095796149458592,1.08085393065909,1.1106736872333278,1.6484262617870042,1.515720203120645,1.22300481483656,806.6666666666667,819.1575091575091,795.3846153846154,815.934065934066,701.9047619047618,-0.230896,-0.12133800000000006,0.983459,9.869385000000001,-19.514464999999998,-6.721649,70.0,100.0,-30.0
660.9401709401709,45.36975826651327,,,,,,,26.887753855515648,26.963141034982968,0.06864427411330729,0.04068107074997196,661.5384615384615,45.61846153846162,0.06895813953488385,69.23076923076917,5.5555555555555545,42.22222222222222,12.0,62.5,,,0.04896498289069764,0.014949501355827332,0.0007546846472756371,3.2753589384177717,0.7571611593015475,0.2311689111140013,-4.203077333826965,2021-10-21 16:16:43,2021-10-21 16:16:43.013,1.396666077308276,0.2869963192028762,1.3733923015948548,1.110536689331344,0.7665044115235697,-0.04026406109144525,0.6515298102477914,0.4593894244760205,1.0130919790761121,0.3425858546135502,0.8836839999119331,0.4514457082675318,1.083888036519754,1.2353911917248601,0.9140817030230268,1.08085393065909,1.0749405516411241,1.6484262617870042,1.136536292769135,1.22300481483656,860.2564102564102,762.3443223443222,820.7692307692308,739.7802197802197,687.3992673992674,-0.181091,-0.100647,0.983765,8.874969,1.001892,-14.557343,53.0,97.0,-44.0
660.5609859753506,45.55190574553456,,,,,,,26.910864140900298,26.985623216228532,0.0689594249625187,0.04073940894520904,661.5384615384615,45.61846153846162,0.06895813953488385,69.23076923076917,5.524861878453039,42.5414364640884,11.3125,62.5,,,0.04805302806202364,0.015051778043491278,0.0007656448710119316,3.19251505856498,0.7523514759537819,0.2356610578657569,-4.196259152340851,2021-10-21 16:16:44,2021-10-21 16:16:44.022,1.271257187622438,0.2869963192028762,1.352147348212549,1.110536689331344,0.5910396064786753,-0.04026406109144525,0.6995335600355067,0.4593894244760205,0.7865276455186041,0.3425858546135502,0.9701948939848284,0.4514457082675318,1.0367641489246942,1.2353911917248601,0.9073106413360028,1.08085393065909,1.078457833403452,1.6484262617870042,1.132163151918432,1.22300481483656,792.5641025641023,785.3113553113553,793.3699633699632,682.1611721611722,823.5897435897436,-0.311646,-0.08477799999999999,0.9490360000000001,1.562653,-5.33844,8.187103,49.0,91.0,-42.0
660.982905982906,45.3520860862741,,,,,,,26.912331332178702,26.987787484260345,0.06861309978785891,0.040715623790843834,661.5384615384615,45.61846153846162,0.06895813953488385,69.23076923076917,5.5555555555555545,42.22222222222222,12.0,62.5,,,0.04725242164110025,0.015247149016283306,0.000776860461423568,3.09909882763241,0.7467618006518039,0.24096095096854356,-4.183362743157914,2021-10-21 16:16:45,2021-10-21 16:16:45.000,1.271257187622438,0.2869963192028762,0.8169957674923605,1.110536689331344,0.5910396064786753,-0.04026406109144525,0.7608998632467523,0.4593894244760205,0.7865276455186041,0.3425858546135502,0.7908355581071261,0.4514457082675318,1.0367641489246942,1.2353911917248601,1.3099975665664958,1.08085393065909,1.078457833403452,1.6484262617870042,1.25886163043826,1.22300481483656,777.2527472527472,824.7985347985347,760.7326007326008,666.0439560439562,630.1831501831502,-0.133423,-0.065552,0.9920040000000001,4.486084,-17.062073,20.972443,41.0,85.0,-44.0
660.8119658119657,45.41521276520557,,,,,,,26.85700038113124,26.931784087290612,0.06872637772138719,0.040642424427243806,661.5384615384615,45.61846153846162,0.06895813953488385,69.23076923076917,5.5555555555555545,41.66666666666667,12.0,62.5,,,0.046397364920084165,0.0156130714176972,0.0007903603901712545,2.9717000376680134,0.7388021703143888,0.24861263281947865,-4.159646804187575,2021-10-21 16:16:46,2021-10-21 16:16:46.058,1.079763850296853,0.2869963192028762,0.7019152549429426,1.110536689331344,0.8890300699197078,-0.04026406109144525,0.7756622422285536,0.4593894244760205,1.1359975669197,0.3425858546135502,0.7676063144250439,0.4514457082675318,1.071802139501474,1.2353911917248601,1.2395444108959022,1.08085393065909,1.0899484252485452,1.6484262617870042,1.192379404298574,1.22300481483656,831.6483516483516,795.3846153846154,799.4139194139194,643.8827838827839,619.3040293040292,0.057739,-0.080688,0.997559,1.181335,-15.529326999999999,-11.469421,37.0,80.0,-43.0
660.7692307692307,45.425422135982295,,,,,,,26.90618906772984,26.981524738717237,0.06874627331405936,0.040719494514608615,661.5384615384615,45.61846153846162,0.06895813953488385,69.23076923076917,5.5555555555555545,42.22222222222222,12.0,62.5,,,0.045902581341153215,0.016021054490227116,0.0008016940974612541,2.8651410785197635,0.7318029477601337,0.2554160258447762,-4.133851516148192,2021-10-21 16:16:47,2021-10-21 16:16:47.016,0.5346492806258067,1.051070956955825,1.1377153371516822,0.9963717139853048,0.5321877021999332,0.7367088866328589,1.018942137110175,0.6803328701482048,1.144277354753551,1.053761483733915,0.8583669992256091,1.334723517561036,1.096057713907363,1.3851501925854892,0.986472523090112,1.196369571471176,0.9165692144753496,1.093460441478022,0.9580450053283728,0.9027274145666851,812.3076923076924,811.098901098901,782.4908424908424,678.1318681318681,433.55311355311363,0.039368,-0.07739299999999999,0.9965209999999999,4.306641,-6.587067,5.682373,37.0,72.0,-35.0
660.7734806629834,45.306357070973284,,,,,,,26.763876073149586,26.838223457211704,0.0685656407177773,0.04050385927458256,661.5384615384615,45.61846153846162,0.06895813953488385,69.23076923076917,5.524861878453039,41.43646408839779,11.3125,109.375,,,0.045620199969714455,0.016545637011292285,0.000814241523227817,2.75723442612569,0.7243592109312331,0.2627122322526133,-4.101632836609493,2021-10-21 16:16:48,2021-10-21 16:16:48.016,0.5803989035271737,1.083413074188755,1.0593591319081541,0.8637168485244787,0.2198420181579343,0.6785642925957585,0.7219495151939701,0.5226766491465851,1.0673444266484229,1.15616823583359,0.8865614556887594,1.3509780439483507,1.20087307126485,1.2623308306223409,1.1777306120816942,1.1313656150625382,0.8440784924473619,0.9850884513608557,0.8760681259536062,1.012425022019557,841.3186813186812,774.4322344322345,808.6813186813188,674.5054945054945,839.7069597069597,-0.014525999999999999,-0.067566,1.006653,9.772186,29.44366500000001,-22.258453,32.0,67.0,-35.0
660.2136752136753,44.86696517688007,,,,,,,26.4601992445513,26.530921860482177,0.0679582487629616,0.04007823563483077,661.5384615384615,45.61846153846162,0.06895813953488385,69.23076923076917,5.0,41.111111111111114,11.25,140.625,,,0.045600323486951866,0.017380349541104748,0.0008320463958505629,2.623671254660703,0.7145961478937989,0.2723649720308467,-4.052415047661009,2021-10-21 16:16:49,2021-10-21 16:16:49.029,0.3170592836409459,0.6073243746273638,0.6935310743878143,0.6217213308280185,0.1154320988531492,0.5050235788923724,0.3492697906542817,0.4326895936391688,1.034719744929505,0.6538032814993722,0.7342119984852797,0.8939436279111286,1.132533740942615,1.4453557997296909,1.288680751541107,1.2262925445543391,0.9840161857889528,1.143547179432445,0.911472386213471,1.153359929740573,795.7875457875458,785.7142857142858,814.3223443223442,886.0439560439563,651.941391941392,-0.29070999999999997,-0.055480999999999996,0.9605100000000001,3.8954160000000004,-8.179625999999999,11.118011,35.0,68.0,-33.0
660.0,44.47156107898422,,,,,,,26.516358202480173,26.59070311451231,0.06738115314997609,0.040176300306788135,661.5384615384615,45.61846153846162,0.06895813953488385,69.23076923076917,5.0,41.111111111111114,11.25,140.625,,,0.04585633270123983,0.018193591417721974,0.0008477663819041668,2.5204662261774327,0.7065942154078341,0.28034266361881105,-4.0066858668135445,2021-10-21 16:16:50,2021-10-21 16:16:50.011,0.3874416846282426,1.3054131227681631,1.022187592762875,0.6217213308280185,0.1652530654245979,0.7341866692193366,0.611227615990234,0.4326895936391688,0.9859717270037206,0.8150636117378659,0.5930851795409767,0.8939436279111286,1.149758286350302,1.3265823436445578,1.1944224735121591,1.2262925445543391,0.9635076447753824,1.144609600451908,1.1638367328647559,1.153359929740573,742.1978021978023,800.2197802197803,801.4285714285713,859.4505494505495,1443.2967032967028,-0.18023699999999998,-0.076599,0.9946290000000001,1.75705,-9.899291999999999,-4.583282,41.0,61.0,-20.0
660.1784955376114,44.412826883612226,,,,,,,26.29924390760633,26.370374717409412,0.06727396784932378,0.03983656554306534,661.5384615384615,45.61846153846162,0.06895813953488385,69.23076923076917,4.419889502762429,41.43646408839779,11.3125,140.625,,,0.045114916067273504,0.018630890288411563,0.0008414300042243916,2.421511552528171,0.6985113253007557,0.2884608684073703,-3.982934307619325,2021-10-21 16:16:51,2021-10-21 16:16:51.005,1.2511223942703449,0.903649489539008,0.654308539782641,1.2421043759938892,0.9822856426384372,0.3381999871608612,0.3415558231370368,0.7671324887997522,0.9261440152495346,0.8290356950369062,0.6458057794469346,0.9174691604565226,1.036395921200911,1.1057188990645759,1.057793584648569,1.050057408701104,0.5346332453034643,1.123511775264509,0.9329140666379492,0.8661856320125458,770.4029304029305,799.4139194139194,802.6373626373628,882.4175824175826,994.0293040293041,0.297852,-0.033507999999999996,0.975525,4.388885,-23.065948000000002,6.594542999999999,47.0,50.0,-3.0
660.6837606837607,44.9777740438302,,,,,,,26.240660788218733,26.30406725480772,0.06807761401200689,0.03971742965357816,661.5384615384615,45.61846153846162,0.06895813953488385,69.23076923076917,4.4444444444444455,40.555555555555564,12.0,62.5,,,0.04352887561247453,0.018880689747216867,0.0008162377126700668,2.305470626087214,0.6884669469940311,0.2986231701257801,-3.969615585710872,2021-10-21 16:16:52,2021-10-21 16:16:52.000,1.3098277463911778,1.1002238606320072,1.124235828611208,1.2421043759938892,0.8951114996146695,0.8139764485347596,0.8724821757828939,0.7671324887997522,0.946102212167298,0.7194337735488829,1.216345922081632,0.9174691604565226,0.9806487372871244,0.7106045897609654,0.7202222658246329,1.050057408701104,0.659769595628894,0.6950719143855226,0.329817989306856,0.8661856320125458,854.6153846153846,768.3882783882782,881.2087912087912,745.8241758241759,673.2967032967033,-0.053894000000000004,-0.023438,0.976074,-13.884429999999998,87.59079,-22.168732000000002,52.0,34.0,18.0
661.7948717948717,44.911660928565105,,,,,,,26.34752222770835,26.41453929981432,0.0678634163585447,0.039812218786541086,661.5384615384615,45.61846153846162,0.06895813953488385,69.23076923076917,4.4444444444444455,41.66666666666667,12.0,140.625,,,0.04256980343242445,0.019173561299318773,0.0007987937205255673,2.220234559864313,0.6806577272978686,0.3065701883946289,-3.9542229645661986,2021-10-21 16:16:53,2021-10-21 16:16:53.000,1.3098277463911778,1.090213411333053,1.4256561697148693,1.2421043759938892,0.8951114996146695,0.9299173692897341,0.9343220189328588,0.7671324887997522,0.946102212167298,0.5959599024806342,1.212555828201983,0.9174691604565226,0.9806487372871244,0.8376079081938871,1.221987100571749,1.050057408701104,0.659769595628894,0.8230678642407708,1.02638914938549,0.8661856320125458,792.5641025641023,828.8278388278387,780.8791208791209,577.3992673992674,72.52747252747254,-0.44873,-0.066833,0.9138790000000001,0.4187010000000001,-7.731018,18.288269,49.0,26.0,23.0
662.1794871794872,44.541935302913224,,,,,,,26.478932131318693,26.551493405621446,0.06726565253876539,0.03998754513538932,661.5384615384615,45.61846153846162,0.06895813953488385,69.23076923076917,4.4444444444444455,42.22222222222222,12.0,140.625,,,0.041891695450123737,0.019548485167674608,0.0007836119660040388,2.142963768844651,0.6732423999020056,0.3141641541914518,-3.934857480582314,2021-10-21 16:16:54,2021-10-21 16:16:54.007,1.3098277463911778,1.062583709425984,1.210485704119803,1.2421043759938892,0.8951114996146695,0.8950374177572711,0.6125116404331554,0.7671324887997522,0.946102212167298,0.9832862473996942,0.8164896893870083,0.9174691604565226,0.9806487372871244,1.2646563266273392,1.169537611312314,1.050057408701104,0.659769595628894,1.28617457532003,1.050348841387459,0.8661856320125458,798.2051282051282,784.1025641025641,796.9963369963368,858.6446886446887,845.3479853479854,-0.231934,-0.038452,0.9846799999999999,10.639496000000001,-11.648864999999999,-14.968567000000002,46.0,22.0,24.0
662.2222222222222,44.4855994191015,,,,,,,26.609693085234515,26.68419553494937,0.06717624073354253,0.04018242244414607,661.5384615384615,45.61846153846162,0.06895813953488385,69.23076923076917,4.4444444444444455,42.77777777777778,12.0,140.625,,,0.04142468772168033,0.02013070632755726,0.0007679077869669868,2.057786102863831,0.6646741507783221,0.3230044900455358,-3.905508951642129,2021-10-21 16:16:55,2021-10-21 16:16:55.000,1.218598456974822,0.811829723854115,0.6963311663486207,1.2421043759938892,1.26551462575006,0.5284002657825234,0.4524025342239705,0.7671324887997522,1.18470618700828,0.8637130999627929,0.4768551581120653,0.9174691604565226,1.217667877303347,1.2487326773292542,0.9355737912136454,1.050057408701104,0.8415159042011771,1.043983545573214,0.6530769535348109,0.8661856320125458,808.2783882783882,793.7728937728937,810.2930402930403,935.6043956043956,938.8278388278387,-0.090393,-0.087036,0.9871219999999999,4.142151,-3.730927,-3.678589,43.0,23.0,20.0
661.6666666666666,45.12149404462372,,,,,,,26.609693085234515,26.68210756427841,0.06819369377021217,0.04021616083410757,661.5384615384615,45.61846153846162,0.06895813953488385,69.23076923076917,4.4444444444444455,42.77777777777778,12.0,140.625,,,0.04134329955754131,0.020690519020644088,0.0007593010631219649,1.998176049440364,0.6584049302488284,0.3295029636819189,-3.8780797019596185,2021-10-21 16:16:56,2021-10-21 16:16:56.030,1.123777434545925,1.061175004667531,1.2244043582121231,1.2421043759938892,0.96186556148545,0.7297286499503689,0.8557470838595198,0.7671324887997522,1.1389647104256078,0.9862265612058628,0.9178361012554572,0.9174691604565226,1.159767726124061,1.27730944248502,1.075654286637147,1.050057408701104,0.9060475745240384,1.1236069232880028,0.6582279058139103,0.8661856320125458,801.025641025641,805.8608058608058,805.054945054945,867.1062271062273,664.4322344322344,-0.108948,-0.044006,0.99939,0.770111,-0.88974,4.231873,45.0,30.0,15.0
661.3247863247863,45.47146719812125,,,,,,,26.603480947158676,26.676399610607906,0.06875814749182793,0.04022755761961312,661.5384615384615,45.61846153846162,0.06895813953488385,69.23076923076917,4.4444444444444455,42.77777777777778,12.0,140.625,,,0.041494498449975104,0.02132723917724013,0.0007543103922990109,1.9456104048505696,0.6526750205869771,0.3354602848339028,-3.847770188667053,2021-10-21 16:16:57,2021-10-21 16:16:57.015,0.6744277503437327,0.7912121456756048,1.089621194144643,1.2421043759938892,0.7309158814102589,0.467142820536222,0.7060286882303024,0.7671324887997522,0.8370077249750213,0.9330801498218328,0.9224484908966396,0.9174691604565226,1.153471990290874,1.379823155694811,1.231872493436752,1.050057408701104,0.9501248839545732,1.365758275891354,0.960899909006093,0.8661856320125458,770.4029304029305,797.3992673992674,808.6813186813188,675.7142857142858,484.3223443223443,-0.09979199999999999,-0.022765999999999998,1.00708,5.211334,-6.931,0.5159,51.0,32.0,19.0
660.8974358974359,45.959158209561025,,,,,,,26.528821826295317,26.603201715878917,0.06954053036558214,0.0401406033453159,661.5384615384615,45.61846153846162,0.06895813953488385,69.23076923076917,4.4444444444444455,42.22222222222222,12.0,140.625,,,0.041958599768152915,0.022206605724828167,0.0007523117919352892,1.889464796560105,0.646337098567724,0.3420741681689033,-3.807365479192224,2021-10-21 16:16:58,2021-10-21 16:16:58.000,0.7311407508412553,0.8537664764041131,0.8766109049998403,1.2421043759938892,0.6450738221686653,0.5233412786032174,0.4862675918515167,0.7671324887997522,0.9993685773127604,1.108988341488148,0.7717675774732345,0.9174691604565226,1.061758757414045,1.3907996000935048,1.078515416646428,1.050057408701104,0.9687834383361341,1.2512179602461422,0.905142109964306,0.8661856320125458,804.6520146520148,814.7252747252749,795.3846153846154,819.1575091575091,594.3223443223443,-0.087891,-0.078064,0.9966430000000001,-1.914062,-3.8056949999999996,16.03775,51.0,41.0,10.0
660.9009774755633,45.71643477251314,,,,,,,26.585181222215034,26.65809808012961,0.06917289628944982,0.040225664854910914,661.5384615384615,45.61846153846162,0.06895813953488385,69.23076923076917,4.419889502762429,42.5414364640884,12.066666666666665,140.625,,,0.04252270943854136,0.02295839757691092,0.0007545522619264246,1.852163649317848,0.6419911857518723,0.3466168802029549,-3.7740715019127316,2021-10-21 16:16:59,2021-10-21 16:16:59.057,0.4456298683438182,1.30941601327675,1.298226976222653,1.2421043759938892,0.1358948448940491,0.9360819963180892,0.7555922111550165,0.7671324887997522,0.8816277110987556,1.025323273829975,0.9895088651977524,0.9174691604565226,1.1232558234920968,1.2714522958247971,0.970074927147888,1.050057408701104,0.9582277955947098,1.1831098761146828,0.9423348944723522,0.8661856320125458,816.3369963369963,798.2051282051282,797.3992673992674,800.2197802197803,1089.5238095238099,-0.295959,-0.049744,0.947815,10.632019,2.773895,-9.674988,54.0,41.0,13.0
661.5384615384618,45.249702967613324,,,,,,,26.646935501059648,26.7211256148969,0.06840071378825269,0.040280251338811086,661.5384615384615,45.61846153846162,0.06895813953488385,69.23076923076917,4.4444444444444455,42.77777777777778,12.0,140.625,,,0.04342093865459959,0.023930686367876056,0.0007621010486685371,1.81444602077468,0.6374770719377002,0.3513342720802069,-3.7325936951549212,2021-10-21 16:17:00,2021-10-21 16:17:00.033,0.4602340430032084,1.3774407438294658,1.372200483638764,1.2421043759938892,0.1964724816914555,0.9609233818653616,0.9538614021846652,0.7671324887997522,0.8665046272515956,0.9239053532401524,1.1663996258718592,0.9174691604565226,1.250428893371897,1.2043363821464408,1.057993312649041,1.050057408701104,1.039954723530889,1.023661994314826,1.09332393014606,0.8661856320125458,918.6813186813188,808.6813186813188,793.7728937728937,906.1904761904764,703.5164835164835,-0.366516,-0.065308,0.943665,-47.53006,-12.314300999999999,135.262909,50.0,30.0,20.0
661.3675213675214,45.36611508138322,,,,,,,26.447703281991572,26.51964972847145,0.06859441024194672,0.039989419539842516,661.5384615384615,45.61846153846162,0.06895813953488385,69.23076923076917,4.4444444444444455,42.22222222222222,12.0,140.625,,,0.04424243307920399,0.02470299443468477,0.0007718079114039343,1.7909744989087013,0.6345982139038361,0.3543312393842108,-3.70083081052276,2021-10-21 16:17:01,2021-10-21 16:17:01.036,0.4602340430032084,1.3774407438294658,1.372200483638764,1.2421043759938892,0.1964724816914555,0.9609233818653616,0.9538614021846652,0.7671324887997522,0.8665046272515956,0.9239053532401524,1.1663996258718592,0.9174691604565226,1.250428893371897,1.2043363821464408,1.057993312649041,1.050057408701104,1.039954723530889,1.023661994314826,1.09332393014606,0.8661856320125458,876.7765567765567,812.3076923076924,811.9047619047618,939.2307692307692,711.5750915750915,-0.279846,-0.082703,1.010437,8.822632,3.327179,-27.537079,45.0,22.0,23.0
660.4759881002975,46.0238445522051,,,,,,,26.24919772732252,26.31348545207822,0.06968284295176537,0.03974284939990341,661.5384615384615,45.61846153846162,0.06895813953488385,69.23076923076917,4.419889502762429,41.43646408839779,12.066666666666665,140.625,,,0.04512119722631755,0.02544205528341796,0.0007849264494843067,1.7734886872809217,0.6324085335395496,0.35659011420543435,-3.6713517543309773,2021-10-21 16:17:02,2021-10-21 16:17:02.059,0.4602340430032084,1.3774407438294658,1.372200483638764,1.2421043759938892,0.1964724816914555,0.9609233818653616,0.9538614021846652,0.7671324887997522,0.8665046272515956,0.9239053532401524,1.1663996258718592,0.9174691604565226,1.250428893371897,1.2043363821464408,1.057993312649041,1.050057408701104,1.039954723530889,1.023661994314826,1.09332393014606,0.8661856320125458,834.4688644688645,795.3846153846154,817.1428571428571,813.9194139194141,1087.509157509158,-0.271423,-0.082275,0.9660030000000001,4.067383,0.231781,3.147736,40.0,6.0,34.0
659.5299145299144,46.335153757833965,,,,,,,26.291002629772443,26.352032920840365,0.07025481746473887,0.039863245094063054,661.5384615384615,45.61846153846162,0.06895813953488385,69.23076923076917,4.4444444444444455,41.66666666666667,12.0,140.625,,,0.04607232314812852,0.026143984769369327,0.0008025222305689996,1.7622532890283629,0.6309649586922104,0.3580444210945974,-3.6441361428716768,2021-10-21 16:17:03,2021-10-21 16:17:03.061,0.4602340430032084,1.3774407438294658,1.372200483638764,1.2421043759938892,0.1964724816914555,0.9609233818653616,0.9538614021846652,0.7671324887997522,0.8665046272515956,0.9239053532401524,1.1663996258718592,0.9174691604565226,1.250428893371897,1.2043363821464408,1.057993312649041,1.050057408701104,1.039954723530889,1.023661994314826,1.09332393014606,0.8661856320125458,792.5641025641023,788.5347985347986,807.8754578754579,769.5970695970697,583.8461538461537,0.012634000000000001,-0.016784999999999998,1.005554,1.8766779999999998,-6.190796,-31.043701000000002,34.0,0.0,34.0
658.2235444113896,46.85502540563974,,,,,,,26.054360811412273,26.10140347497036,0.07118406171195141,0.039582845421780144,661.5384615384615,45.61846153846162,0.06895813953488385,69.23076923076917,4.419889502762429,41.43646408839779,12.066666666666665,148.4375,,,0.047404986167973714,0.026972469363060768,0.0008325168471854332,1.757532301914322,0.6303018691401853,0.35862889601155784,-3.6129385863977697,2021-10-21 16:17:04,2021-10-21 16:17:04.002,0.4602340430032084,1.3774407438294658,1.372200483638764,1.2421043759938892,0.1964724816914555,0.9609233818653616,0.9538614021846652,0.7671324887997522,0.8665046272515956,0.9239053532401524,1.1663996258718592,0.9174691604565226,1.250428893371897,1.2043363821464408,1.057993312649041,1.050057408701104,1.039954723530889,1.023661994314826,1.09332393014606,0.8661856320125458,801.8315018315019,792.9670329670329,782.0879120879123,909.81684981685,788.1318681318681,0.001526,-0.149536,0.989075,-7.476807000000001,-15.933075,17.11441,29.0,4.0,25.0
656.6779374471682,46.83006242522553,,,,,,,25.76750220969266,25.826289202255516,0.07131359187622037,0.039239177594215635,661.5384615384615,45.61846153846162,0.06895813953488385,69.23076923076917,4.395604395604397,40.65934065934066,12.133333333333333,148.4375,,,0.04860732726064531,0.02758415489638251,0.0008634686605206864,1.7621466904907737,0.6308138120253718,0.35798030631018835,-3.59051376907352,2021-10-21 16:17:05,2021-10-21 16:17:05.056,0.4602340430032084,1.3774407438294658,1.687886353056294,1.2421043759938892,0.1964724816914555,0.9609233818653616,1.1094058975800811,0.7671324887997522,0.8665046272515956,0.9239053532401524,0.9216513937284394,0.9174691604565226,1.250428893371897,1.2043363821464408,1.05695099064845,1.050057408701104,1.039954723530889,1.023661994314826,1.1478850814165438,0.8661856320125458,810.6959706959708,797.3992673992674,797.3992673992674,639.047619047619,473.8461538461538,-0.0849,0.029297000000000007,1.0115969999999999,12.007750999999999,-9.136658,12.688141,25.0,1.0,24.0
654.9873203719358,46.60143679514154,,,,,,,25.531712020086875,25.593453532000073,0.07114860905807892,0.038980467599874516,657.6923076923076,51.32076923076927,0.07803157894736848,74.9999999999999,4.395604395604397,39.56043956043956,12.133333333333333,148.4375,,,0.049927990994758586,0.028136222976346003,0.0009000818653534319,1.7745093588692709,0.6322856484171508,0.3563157586387978,-3.570697458893536,2021-10-21 16:17:06,2021-10-21 16:17:06.017,0.7058166531665725,1.3774407438294658,1.037367897715255,1.2421043759938892,0.9467252883629786,0.9609233818653616,0.9802189007208424,0.7671324887997522,1.097083901487161,0.9239053532401524,0.7324689320445091,0.9174691604565226,1.3435475925961788,1.2043363821464408,1.224598175418269,1.050057408701104,1.3681661869300978,1.023661994314826,0.9449649666892819,0.8661856320125458,801.4285714285713,816.3369963369963,803.4432234432236,646.3003663003664,346.5201465201465,-0.12255899999999999,0.144775,0.9957280000000001,6.841278,-0.0,4.643097,28.000000000000004,22.0,6.000000000000004
654.3956043956044,46.51393539650911,,,,,,,25.55091120466744,25.61381187952675,0.07107922957317092,0.03904505322627602,653.8461538461537,57.023076923076744,0.08721176470588207,69.23076923076917,4.395604395604397,39.56043956043956,12.133333333333333,148.4375,,,0.05171278975873477,0.02871483434892962,0.0009542980111228102,1.8009085175399044,0.6354333789665648,0.35284045401405845,-3.5503414134817635,2021-10-21 16:17:07,2021-10-21 16:17:07.010,0.7058166531665725,0.8250591083760516,0.7917129750979472,1.2421043759938892,0.9467252883629786,0.374483206689423,0.8596773636876589,0.7671324887997522,1.097083901487161,0.8843254527959951,0.8642701977450052,0.9174691604565226,1.3435475925961788,1.437374099208107,1.072816933507962,1.050057408701104,1.3681661869300978,1.2570887352102091,1.07650231838085,0.8661856320125458,793.3699633699632,809.0842490842491,825.6043956043958,816.7399267399268,548.7912087912088,-0.15826400000000002,-0.045349,0.987183,-6.527252,-4.889832,2.572021,34.0,50.0,-16.0
653.2121724429418,45.754626076524495,,,,,,,25.62118512741663,25.688721753257603,0.07004558091042183,0.03922337367290052,653.8461538461537,57.023076923076744,0.08721176470588207,69.23076923076917,4.395604395604397,39.010989010989015,12.133333333333333,148.4375,,,0.053307581062136636,0.02911297502490738,0.0010037896455102424,1.8310592104218049,0.6389930972072904,0.34897456814631955,-3.536571327033782,2021-10-21 16:17:08,2021-10-21 16:17:08.000,0.760338307389127,0.8843941763573577,0.6942559957094776,1.2421043759938892,1.154420005477782,0.5269540298532627,0.5132320126146301,0.7671324887997522,1.127897099995751,0.8768335250818338,0.8669092332011591,0.9174691604565226,1.18735834173115,1.385764286551687,1.1115127358501942,1.050057408701104,1.31077836725128,1.303442288104679,1.27350037158445,0.8661856320125458,795.3846153846154,805.054945054945,819.1575091575091,595.1282051282053,518.974358974359,-0.081604,-0.009826999999999999,1.002686,9.293671,-4.852448000000001,8.104858,44.0,49.0,-5.0
652.9163144547758,45.42324653828937,,,,,,,25.65306418059269,25.72334144992547,0.06956978334385854,0.03928997271574463,653.8461538461537,51.32076923076917,0.07849058823529405,69.23076923076917,4.395604395604397,39.56043956043956,12.133333333333333,148.4375,,,0.055551209142735716,0.029532495272337582,0.001073735152389423,1.8810198268200276,0.6447639277771038,0.3427735947191553,-3.522264087224992,2021-10-21 16:17:09,2021-10-21 16:17:09.046,0.972701040274648,1.344006241576527,1.1545696616141068,1.2421043759938892,1.0892976624704749,0.7472170393402467,0.5809371844304124,0.7671324887997522,1.343784536244656,0.8183755119291624,0.9433588627856444,0.9174691604565226,1.177656030103565,1.3703812462170455,1.240739088340533,1.050057408701104,1.2788482776308878,1.424538924126787,1.158152782821501,0.8661856320125458,823.1868131868132,786.1172161172162,790.5494505494507,930.3663003663004,1072.600732600733,-0.08996599999999999,0.05804400000000001,1.003052,0.934601,-6.7590330000000005,0.5233760000000001,51.0,63.0,-12.0
653.0895334174023,45.33734485476604,,,,,,,25.480619706414664,25.550594851532736,0.06941980009621444,0.03901550767944937,653.8461538461537,57.023076923076744,0.08721176470588207,69.23076923076917,4.371584699453551,39.34426229508197,12.2,148.4375,,,0.05504782061442768,0.028480741489067495,0.0010841171900921331,1.932808548385516,0.6505859532402218,0.3366013430474836,-3.5585271573465374,2021-10-21 16:17:10,2021-10-21 16:17:10.026,1.234091988650658,1.358478502155274,1.265686818693112,1.2421043759938892,0.8964147063521777,0.8817659705167522,0.6179137219953613,0.7671324887997522,1.1788688000901308,1.176005096633955,0.9601031533491956,0.9174691604565226,1.3178120609567359,1.1730892288605448,1.3151337760805448,1.050057408701104,1.372000821904324,1.2911611304743549,1.173170137803653,0.8661856320125458,738.974358974359,797.3992673992674,772.0146520146519,638.6446886446887,362.23443223443223,-0.205627,-0.029175,0.980225,3.132782,4.785156,-3.080444,53.0,65.0,-12.0
653.0853761622993,45.47675815680764,,,,,,,25.512498387349233,25.582380874232427,0.06963371071641655,0.03906456846004936,653.8461538461537,57.023076923076744,0.08721176470588207,69.23076923076917,4.395604395604397,39.010989010989015,13.0,70.3125,,,0.05440835284504147,0.027246450780400003,0.0010881509620935227,1.9968968906651368,0.6575587385809636,0.3292902811631603,-3.602832012946533,2021-10-21 16:17:11,2021-10-21 16:17:11.006,1.234091988650658,1.066701810577912,0.7895859495184955,1.2421043759938892,0.8964147063521777,0.8317884709193674,0.2405759648171216,0.7671324887997522,1.1788688000901308,0.9046589879138696,0.6642121323450745,0.9174691604565226,1.3178120609567359,1.160384834958893,1.387249820241448,1.050057408701104,1.372000821904324,1.258312373391757,1.331845034771503,0.8661856320125458,856.6300366300368,773.6263736263736,783.2967032967032,977.1062271062273,850.9890109890109,-0.21466100000000002,-0.018127,0.987,4.538422,-6.437531,-0.209351,50.0,64.0,-14.0
652.7952921395545,45.47823595801228,,,,,,,25.65863019211504,25.727702290549043,0.06966691780045793,0.039305783146839454,653.8461538461537,57.023076923076744,0.08721176470588207,69.23076923076917,4.918032786885246,38.797814207650276,12.2,70.3125,,,0.05389647579102761,0.02598538541354694,0.0010908141712621382,2.0741072311719417,0.6656131286371084,0.32091548529099634,-3.650220998476756,2021-10-21 16:17:12,2021-10-21 16:17:12.002,1.234091988650658,1.254745536816225,1.049057038021567,1.2421043759938892,0.8964147063521777,0.9369012604281794,0.7237690052397678,0.7671324887997522,1.1788688000901308,0.7050766874523904,0.8395338697565703,0.9174691604565226,1.3178120609567359,1.3027241568238368,1.2523887863652257,1.050057408701104,1.372000821904324,1.294982195366295,1.237051608085531,0.8661856320125458,817.1428571428571,771.6117216117218,788.9377289377289,967.4358974358977,1091.941391941392,-0.200317,-0.011719,0.9869379999999999,5.345917,-4.201965,2.422485,50.0,64.0,-14.0
652.3668639053254,45.69208457509274,,,,,,,25.729412754709607,25.79905967028882,0.07004047431465464,0.03944009755597209,653.8461538461537,57.023076923076744,0.08721176470588207,69.23076923076917,4.945054945054945,39.010989010989015,12.133333333333333,70.3125,,,0.05344794150076598,0.0244141938951376,0.0010919234030693397,2.1892159016321577,0.6769498910353835,0.30922025120075514,-3.7125905988008983,2021-10-21 16:17:13,2021-10-21 16:17:13.008,1.333468370490458,1.261137242845205,1.049243848261497,0.9151603709841659,0.6186974098742849,0.7355260508552037,0.8746127261586413,0.4276141572394129,0.6548549462124388,0.595226508400537,1.066795612869037,0.5048774840351038,1.1768303918043892,1.4289545598197533,1.2252953654346492,1.123781538644415,1.0820455846734929,1.3014673246266202,1.145655725881145,1.105935388180649,674.9084249084249,822.7838827838829,799.0109890109891,539.1208791208792,338.8644688644688,-0.21106,-0.009276999999999999,0.980408,3.259888,-4.321594,0.142059,52.0,54.0,-2.0
651.9966372425389,45.691615946573066,,,,,,,25.753486819466342,25.824391944826587,0.07007952700464012,0.03949941663562016,653.8461538461537,57.023076923076744,0.08721176470588207,69.23076923076917,4.918032786885246,39.34426229508197,12.2,70.3125,,,0.05326036786912616,0.0232040248275114,0.0010907197973068778,2.295307312633929,0.6867421908940532,0.2991940064470049,-3.7634295314120148,2021-10-21 16:17:14,2021-10-21 16:17:14.053,1.278278299498733,0.9783217552399274,0.7159572522693386,0.9151603709841659,0.5364281638316386,0.5617728633625212,0.6090302197951886,0.4276141572394129,0.611092482631592,0.4846984344385654,0.8816572083719855,0.5048774840351038,1.1753183605867028,1.436228647928673,1.136485235454898,1.123781538644415,1.084904878378566,1.321853892986625,1.238515188460088,1.105935388180649,813.1135531135533,795.3846153846154,796.5934065934067,904.5787545787546,1121.355311355311,-0.21447800000000009,-0.001221,0.9912719999999999,3.476715,-5.166473000000001,0.269165,56.99999999999999,49.0,7.999999999999992
651.744430432955,45.737551983310574,,,,,,,25.80393444238568,25.875117845052888,0.07017712748680804,0.03959210579712063,653.8461538461537,57.023076923076744,0.08721176470588207,69.23076923076917,4.918032786885246,39.89071038251365,12.2,70.3125,,,0.05324972477350043,0.022075239182956383,0.0010878786112664997,2.412192426644823,0.6968687851954489,0.2888943591306853,-3.8132986975358,2021-10-21 16:17:15,2021-10-21 16:17:15.009,1.215042909844061,0.7329723173545216,0.9023745400116134,0.9151603709841659,0.9011986984102596,0.4162267189596467,0.6800640959166627,0.4276141572394129,0.6997250034631496,0.7182076867788595,0.85565319673087,0.5048774840351038,1.207564783908362,1.267210793857466,1.0986699970919458,1.123781538644415,1.084545565878867,1.360449678673968,1.3565187784784642,1.105935388180649,798.2051282051282,755.0915750915751,812.7106227106227,724.8717948717949,722.4542124542122,-0.20239300000000002,-0.005797999999999999,0.9848629999999999,3.5290529999999998,-7.588959,-0.239258,67.0,43.0,24.0
651.828499369483,45.741358483937,,,,,,,25.772416250040823,25.84264388722076,0.0701739161883576,0.03953864593979952,653.8461538461537,57.023076923076744,0.08721176470588207,69.23076923076917,4.918032786885246,39.34426229508197,12.2,70.3125,,,0.05351599439223578,0.0208230581017406,0.001082939572048422,2.570035300807348,0.7095542417573326,0.2760873523933441,-3.8716943436929516,2021-10-21 16:17:16,2021-10-21 16:17:16.009,1.222800538876286,0.5659483848104617,0.8066029981364293,0.9151603709841659,0.9146364029806874,0.2824315582027387,0.4663315718150113,0.4276141572394129,0.7089326932752549,0.5860109000586599,0.5549309769758897,0.5048774840351038,1.2047732265181001,1.158540504302731,1.085431197435608,1.123781538644415,1.0556862467812649,1.2356625868348101,1.0885863298903808,1.105935388180649,828.021978021978,827.2161172161173,773.2234432234433,908.2051282051282,880.4029304029305,-0.149902,-0.002441,1.009827,5.188904,-8.067474,-5.286102,67.0,43.0,24.0
652.8373266078182,45.96627303843709,,,,,,,25.721906811487695,25.790043323888746,0.07040999520857759,0.03940017790517625,653.8461538461537,57.023076923076744,0.08721176470588207,69.23076923076917,4.918032786885246,39.89071038251365,12.2,70.3125,,,0.05397529787125852,0.019967902367634738,0.0010786147419356898,2.703103053966508,0.7194613711365335,0.2661612808586053,-3.9136291762484423,2021-10-21 16:17:17,2021-10-21 16:17:17.000,0.6176398127341657,0.4665702750781547,0.35694565104141796,0.9151603709841659,0.4469449045820748,0.4430768785907476,0.2988988873624375,0.4276141572394129,0.7761511368839441,0.4204433513304969,0.5971367267006298,0.5048774840351038,1.135772842101096,1.138575726426205,1.1793141999597718,1.123781538644415,1.074131873921854,1.102264640442201,0.9316087021605942,1.105935388180649,789.7435897435898,787.3260073260074,827.6190476190477,985.1648351648352,825.2014652014653,-0.17981,-0.021484,0.991943,5.510406,-10.617065,-4.486084,73.0,36.0,37.0
653.0008453085376,46.20977698248706,,,,,,,25.595653297330646,25.666512336894087,0.07076526365085074,0.039196968091575614,653.8461538461537,57.023076923076744,0.08721176470588207,74.9999999999999,4.945054945054945,40.10989010989011,12.133333333333333,70.3125,,,0.054796866695501545,0.01907142413063384,0.001072458127388227,2.8732446156175113,0.7312025494899337,0.25448670312144145,-3.9595641830478336,2021-10-21 16:17:18,2021-10-21 16:17:18.001,0.1630803838008038,1.097961440134177,1.193987082518883,0.9151603709841659,0.6117821742114371,0.7597522005867425,0.8627092717685642,0.4276141572394129,0.9112412140692948,1.174222417385636,1.052048860672173,0.5048774840351038,1.316410288716791,1.2028514612902181,1.244479160580304,1.123781538644415,1.332000791951417,1.230192426024718,0.9335949431009112,1.105935388180649,795.3846153846154,803.040293040293,802.2344322344322,747.0329670329671,729.7069597069597,-0.23400900000000002,-0.078125,0.957275,-1.24115,0.127106,-6.452483999999999,57.99999999999999,55.00000000000001,2.9999999999999862
652.9585798816568,46.155889326772105,,,,,,,25.499681255976444,25.5695277429672,0.07068731577910728,0.039052524986497666,653.8461538461537,57.023076923076744,0.08721176470588207,74.9999999999999,4.945054945054945,39.56043956043956,12.133333333333333,70.3125,,,0.05557829322807743,0.01847575644030156,0.0010651775045006347,3.008174166381806,0.7398677451801969,0.2459524296992752,-3.9912958689913824,2021-10-21 16:17:19,2021-10-21 16:17:19.000,1.340377575399553,1.5931202190463034,1.371996615663343,0.9151603709841659,0.7299393626281657,0.9745148149441862,1.0788220002618332,0.4276141572394129,0.8613921373153336,1.191512044232932,1.1101511257687051,0.5048774840351038,1.248431035181929,1.28845219595127,1.122959054695422,1.123781538644415,1.2496558547865,1.364821779612512,0.8477215644253355,1.105935388180649,800.6227106227108,778.0586080586081,780.0732600732601,883.2234432234433,932.3809523809523,-0.192139,-0.046326,1.001892,28.524016999999997,-2.549591,-17.032166,57.99999999999999,55.00000000000001,2.9999999999999862
