HRV_MeanNN,HRV_SDNN,HRV_SDANN1,HRV_SDNNI1,HRV_SDANN2,HRV_SDNNI2,HRV_SDANN5,HRV_SDNNI5,HRV_RMSSD,HRV_SDSD,HRV_CVNN,HRV_CVSD,HRV_MedianNN,HRV_MadNN,HRV_MCVNN,HRV_IQRNN,HRV_pNN50,HRV_pNN20,HRV_HTI,HRV_TINN,HRV_ULF,HRV_VLF,HRV_LF,HRV_HF,HRV_VHF,HRV_LFHF,HRV_LFn,HRV_HFn,HRV_LnHF,Time,TimeStamp,Delta_TP9,Delta_AF7,Delta_AF8,Delta_TP10,Theta_TP9,Theta_AF7,Theta_AF8,Theta_TP10,Alpha_TP9,Alpha_AF7,Alpha_AF8,Alpha_TP10,Beta_TP9,Beta_AF7,Beta_AF8,Beta_TP10,Gamma_TP9,Gamma_AF7,Gamma_AF8,Gamma_TP10,RAW_TP9,RAW_AF7,RAW_AF8,RAW_TP10,AUX_RIGHT,Accelerometer_X,Accelerometer_Y,Accelerometer_Z,Gyro_X,Gyro_Y,Gyro_Z,Attention,Meditation,A_M
856.50249031544,66.58329554682503,,,,,,,24.192649316196327,24.27556213337249,0.07773858955425006,0.028245859865844006,846.1538461538463,57.02307692307691,0.06739090909090907,88.46153846153845,5.755395683453237,37.410071942446045,15.444444444444445,85.9375,,,0.009680265701401387,0.0006553495187322412,8.285003973796836e-05,14.771149477804824,0.92914507654851,0.0629026927081502,-7.330341848266517,2021-09-27 11:22:30,2021-09-27 11:22:30.000,0.28656405,0.13231908,0.6090835,0.7511185,0.22722256,-0.25743338,0.6936504,0.38766873,0.774016,-0.0023161354,0.47553778,0.7779541,0.6675838000000001,-0.12064239,0.745975,0.6479765000000001,0.26361609,-0.40639657,0.81751484,0.41116620000000004,792.96704,805.4579,848.9743699999997,810.696,774.0293,-0.5323486328125,-0.0421142578125,0.9315185546875,4.6954345703125,6.392669677734375,-16.86767578125,19.0,45.0,-26.0
856.0044272274489,66.86166133981921,,,,,,,24.18378591625929,24.26776078789986,0.07810901347365742,0.028251940231885517,846.1538461538463,68.42769230769235,0.08086909090909096,88.46153846153845,5.755395683453237,37.410071942446045,15.444444444444445,85.9375,,,0.009684603334394642,0.000654784895795014,8.711494123084788e-05,14.79051119930917,0.9288448078105954,0.06280004763148278,-7.331203779631608,2021-09-27 11:22:31,2021-09-27 11:22:31.030,0.49848637,0.33320352,0.6090835,0.7344579999999999,0.25031444,0.033784657999999995,0.6936504,0.27042824,0.7551962,0.22328854,0.47553778,0.77695096,0.69009876,0.0024139937,0.745975,0.55911756,0.48432240000000004,-0.33399478,0.81751484,0.2503994,732.52747,799.0110000000003,778.0586,777.25275,629.3773,-0.67803955078125,0.07635498046875,0.73797607421875,3.5888671875,-0.276641845703125,5.8917236328125,26.0,37.0,-11.0
855.672385168788,67.02533694546597,,,,,,,24.18378591625929,24.26776078789986,0.07833060655830877,0.028262903344121418,846.1538461538463,68.42769230769235,0.08086909090909096,88.46153846153845,5.755395683453237,37.410071942446045,13.9,85.9375,,,0.009885165394789315,0.0006647744310142683,9.269155186942692e-05,14.869954278637335,0.928827189817664,0.06246335210001605,-7.316062776332559,2021-09-27 11:22:32,2021-09-27 11:22:32.010,0.2952037,0.053409543,0.6090835,0.5815526,0.20613824,-0.21461022,0.6936504,0.07905657,0.7080795,0.20461594,0.47553778,0.50555456,0.6604095,0.04491324,0.745975,0.41738325,0.52526295,-0.26903084,0.81751484,0.13382126,788.5348,804.65204,833.2601,793.36993,644.2857,-0.6787109375,-0.03741455078125,0.74810791015625,-2.564544677734375,-6.56463623046875,-1.136474609375,34.0,33.0,1.0
855.2747252747254,66.84753424731467,,,,,,,24.096636854742517,24.17970383399938,0.07815913679179795,0.028174148191976982,846.1538461538463,68.42769230769235,0.08086909090909096,86.53846153846155,5.7142857142857135,37.142857142857146,14.0,85.9375,,,0.010407601737868841,0.0006925935930615193,0.00010141665191605396,15.026996845095544,0.9291164301893796,0.06182981468400463,-7.275067176599642,2021-09-27 11:22:33,2021-09-27 11:22:33.005,0.39257129999999996,0.3367708,0.6090835,0.5718074000000001,0.44808444,-0.21530943,0.6936504,0.48476565,1.0039531,0.19918808,0.47553778,0.5828220000000001,0.75819975,-0.03435855,0.745975,0.45466888,0.46184117,-0.20340274,0.81751484,0.13739863,737.7655599999997,807.47253,681.75824,789.34064,975.8974599999999,-0.6119384765625,0.0689697265625,0.78570556640625,-22.12387084960937,-6.258087158203125,26.09405517578125,43.0,30.0,13.0
854.6209186496956,66.90824272110315,,,,,,,24.13053714871467,24.2119822565598,0.07828996606684799,0.02823536918197721,846.1538461538463,57.02307692307691,0.06739090909090907,80.76923076923072,5.755395683453237,36.69064748201439,13.9,85.9375,,,0.011062984347554232,0.0007287249779000943,0.00010997565598158652,15.181288803127773,0.9295309332090476,0.061228723414940775,-7.224214156532148,2021-09-27 11:22:34,2021-09-27 11:22:34.000,0.731214,0.37687382,0.6090835,0.67642254,0.4160185,0.12252894,0.6936504,0.5306264,0.8241745999999999,0.38061213,0.47553778,1.0986972,0.76727355,0.10180259,0.745975,0.61708564,0.41896996,-0.21638817,0.81751484,0.20604259,759.12085,798.60803,791.3553,765.56775,594.7253,-0.66693115234375,0.05950927734375,0.778564453125,-2.818756103515625,9.652557373046877,-12.747955322265625,45.0,42.0,3.0
854.2335362479248,66.66446103679581,,,,,,,24.13053714871467,24.2119822565598,0.07804008881412933,0.028248173508504407,846.1538461538463,57.02307692307691,0.06739090909090907,76.9230769230768,5.755395683453237,36.69064748201439,13.9,85.9375,,,0.01191078562484735,0.0007756117958711582,0.00011973259076742395,15.356632903538154,0.930084702729432,0.06056566622199721,-7.161858426006996,2021-09-27 11:22:35,2021-09-27 11:22:35.001,0.7416029000000001,0.3789475,0.6090835,0.43786073,0.36345324,0.13542898,0.6936504,0.40871966,0.74276155,0.16648348,0.47553778,1.0878809999999999,0.6613688,0.034813404,0.745975,0.5370411999999999,0.30532798,-0.185937,0.81751484,0.26540574,794.9817,804.65204,912.6374,803.0403,826.8132,-0.4866943359375,-0.11151123046875,0.85809326171875,-6.631927490234375,-1.3458251953125,10.699310302734377,45.0,50.0,-5.0
853.569452130603,66.20030304643021,,,,,,,24.16604936387977,24.244793511447007,0.07755701997205615,0.028311755187066093,846.1538461538463,57.02307692307691,0.06739090909090907,76.9230769230768,5.755395683453237,36.69064748201439,13.9,85.9375,,,0.0131694250899983,0.0008443394563313338,0.00013274039680172264,15.597311000032654,0.9309313602857456,0.059685375272942674,-7.0769559447841255,2021-09-27 11:22:36,2021-09-27 11:22:36.013,0.36285424,0.5607645,0.6090835,1.0213908999999999,0.563183,-0.03017548,0.6936504,0.43618779999999996,0.6098482,0.35009840000000003,0.47553778,1.047974,0.58603084,0.059414644,0.745975,0.68603927,0.37591544,-0.26182082,0.81751484,0.46708208,817.5458,807.0696,860.2564,802.6374,649.92676,-0.52618408203125,0.12982177734375,0.83087158203125,6.078643798828125,-6.89361572265625,7.3870849609375,45.0,56.99999999999999,-11.999999999999993
852.8500276701717,65.7285500242418,,,,,,,24.1394201002943,24.21954311933528,0.07706929459075007,0.02830441380911803,846.1538461538463,57.02307692307691,0.06739090909090907,76.9230769230768,5.755395683453237,36.69064748201439,13.9,85.9375,,,0.01425035791195159,0.000902041654881545,0.00014288668154878356,15.79789340640032,0.931682982622122,0.058975140460478234,-7.010849858389732,2021-09-27 11:22:37,2021-09-27 11:22:37.000,0.8630764000000001,0.7174246999999999,0.6090835,1.0995839,0.6366782,0.22549786,0.6936504,0.5876255,1.0273229,0.30156809999999995,0.47553778,1.4522363,0.65957797,0.27268264,0.745975,0.8808819999999999,0.3225557,-0.02223437,0.81751484,0.57029563,866.30035,795.38464,731.3186599999997,858.24176,885.2381,-0.61737060546875,0.2294921875,0.81036376953125,34.789581298828125,8.979644775390625,11.955413818359375,44.0,61.0,-17.0
852.1306032097399,65.41604048724928,,,,,,,23.853524951308408,23.937220178725443,0.07676762252270389,0.027992803992086174,838.4615384615386,57.02307692307691,0.06800917431192659,76.9230769230768,5.755395683453237,35.97122302158273,13.9,85.9375,,,0.01529676177728761,0.0009564866098788936,0.0001518171999254416,15.992656477673455,0.932441366727824,0.05830434537436348,-6.952243768263091,2021-09-27 11:22:38,2021-09-27 11:22:38.000,1.2020563999999998,0.52511954,0.6090835,1.0345065999999998,1.08131,0.478207,0.6936504,0.71282357,1.0959098,0.30510592,0.47553778,1.4226813,0.7828635,0.42582529999999996,0.745975,1.1050673999999998,0.62424475,0.16529283,0.81751484,0.667074,814.3223,797.8022,494.3956,819.15753,836.8865,-0.70697021484375,0.14654541015625,0.78704833984375,-14.87884521484375,48.53195190429688,-20.583648681640625,47.0,56.00000000000001,-9.000000000000009
851.3186813186812,65.30036472530396,,,,,,,23.776519712045754,23.858373971252732,0.07670495921005112,0.027929047293096216,838.4615384615386,57.02307692307691,0.06800917431192659,76.9230769230768,5.7142857142857135,35.714285714285715,14.0,85.9375,,,0.016305527685303328,0.0010059248135793019,0.0001589560072776739,16.209489481907372,0.93332263407314,0.05757878032586354,-6.901847948090353,2021-09-27 11:22:39,2021-09-27 11:22:39.002,0.94448227,0.8146703000000001,0.6090835,0.86685395,0.7462062,0.56825733,0.6936504,0.9610004000000001,1.1483054,0.515559,0.47553778,1.0799607,0.69992524,0.26209655,0.745975,0.7461121000000001,0.54786235,-0.10191606,0.81751484,0.42101374,821.5751,798.20514,895.3113400000003,837.6923,854.61536,-0.55950927734375,0.0372314453125,0.82672119140625,-7.648773193359375,-18.8116455078125,-29.02496337890625,47.0,59.0,-12.0
850.7692307692308,65.47196223056905,,,,,,,23.731717486989755,23.81437341768774,0.07695619430356218,0.027894423809300798,838.4615384615386,57.02307692307691,0.06800917431192659,78.84615384615371,5.7142857142857135,35.0,14.0,85.9375,,,0.016710334161352813,0.0010220365660974279,0.000160065104526931,16.350035522858054,0.9339328819326144,0.0571211530780429,-6.885958008880374,2021-09-27 11:22:40,2021-09-27 11:22:40.021,1.0129263000000002,0.816858,0.6090835,1.3461486,0.61842686,0.4113937,0.6936504,1.1169885,0.9910095,0.46766603,0.47553778,1.0077735,0.66019696,0.06700369999999999,0.745975,0.9941648999999999,0.35680234,-0.51442784,0.81751484,0.6557632,809.0842,800.2198,875.9707,810.293,740.18317,-0.62628173828125,0.0936279296875,0.847412109375,7.835693359375,5.615081787109375,5.5029296875,44.0,60.0,-16.0
850.2747252747251,65.76785186945159,,,,,,,23.6868305213528,23.77016164248804,0.07734894371722255,0.027857855605080514,838.4615384615386,57.02307692307691,0.06800917431192659,84.61538461538453,5.7142857142857135,34.285714285714285,14.0,85.9375,,,0.01716304963965028,0.001041026141929311,0.0001603032380335059,16.486665366387793,0.9345837189114968,0.0566872498556852,-6.867548377340587,2021-09-27 11:22:41,2021-09-27 11:22:41.033,0.32434618,0.34235576,0.6090835,1.3461486,0.5781538,0.24217726,0.6936504,1.1169885,0.93831074,0.24646512,0.47553778,1.0077735,0.64036465,-0.052749199999999996,0.745975,0.9941648999999999,0.3436918,-0.3567422,0.81751484,0.6557632,813.1135,797.3993,910.6227,812.71063,657.1795,-0.65716552734375,0.154541015625,0.83319091796875,-6.62445068359375,-19.18548583984375,38.60275268554688,43.0,63.0,-20.0
849.5604395604395,66.44952281120469,,,,,,,23.569724347906103,23.65438091861412,0.07821635720889443,0.027743434428398082,838.4615384615386,57.02307692307691,0.06800917431192659,84.61538461538453,5.7142857142857135,32.857142857142854,15.555555555555555,85.9375,,,0.017249952335303024,0.0010412785738305097,0.00015759087518940813,16.56612626902167,0.9350164762262124,0.0564414674283073,-6.867305923005714,2021-09-27 11:22:42,2021-09-27 11:22:42.001,0.6206986,1.0672264,0.6090835,1.3461486,0.7298014,0.84952044,0.6936504,1.1169885,1.0201691,0.5257168000000001,0.47553778,1.0077735,0.82154256,0.03264695,0.745975,0.9941648999999999,0.4512049,-0.29041842,0.81751484,0.6557632,764.35895,805.05493,994.43225,741.39197,668.0586,-0.63671875,0.201416015625,0.73406982421875,12.209625244140625,-3.551483154296875,-8.560943603515625,31.0,63.0,-32.0
849.2307692307692,66.92527141794423,,,,,,,23.506425530209203,23.591178489467268,0.0788069319233039,0.02767966774390576,838.4615384615386,57.02307692307691,0.06800917431192659,84.61538461538453,5.7142857142857135,32.857142857142854,15.555555555555555,85.9375,,,0.017452526400152484,0.0010496682275170624,0.0001557645396256038,16.626707318211928,0.9353931072345992,0.05625846954135195,-6.8592811385362165,2021-09-27 11:22:43,2021-09-27 11:22:43.025,0.394867,1.202754,0.6090835,1.3461486,0.46909386,0.65955967,0.6936504,1.1169885,0.94363105,0.5613328000000001,0.47553778,1.0077735,0.9451710999999999,0.032723278,0.745975,0.9941648999999999,0.6012579,-0.27716225,0.81751484,0.6557632,869.12085,805.4579,977.1062,846.9597,796.1905,-0.6119384765625,-0.21710205078125,0.79876708984375,0.04486083984375,-13.53302001953125,-19.581756591796875,23.0,54.0,-31.0
846.3720676486635,74.4091591178009,,,,,,,32.629221613879196,32.67568973968445,0.08791542391577224,0.03855186490798025,838.4615384615386,57.02307692307691,0.06800917431192659,84.61538461538453,6.382978723404255,33.33333333333333,15.666666666666664,335.9375,,,0.01753939182148457,0.001052703953045178,0.00015273145553352767,16.661276677785825,0.9356923702852056,0.05615970422799274,-6.856393231565211,2021-09-27 11:22:44,2021-09-27 11:22:44.001,0.5071733,0.8917482,0.6090835,1.3461486,0.18301226,0.5376135999999999,0.6936504,1.1169885,0.7522479999999999,0.32223582,0.47553778,1.0077735,0.95506436,-0.0546394,0.745975,0.9941648999999999,0.6955437,-0.33692184,0.81751484,0.6557632,848.5714,800.2198,867.1062,820.3663,878.7912,-0.66680908203125,0.029541015625,0.79278564453125,-2.811279296875,-3.99261474609375,9.8394775390625,14.000000000000002,41.0,-27.0
849.0109890109891,67.26498198790304,,,,,,,23.497368922078707,23.58176200157541,0.07922745742815397,0.027676165828490317,838.4615384615386,57.02307692307691,0.06800917431192659,84.61538461538453,5.7142857142857135,32.857142857142854,15.555555555555555,85.9375,,,0.017683762731866868,0.0010612050364570552,0.00014917382104819837,16.663851116751175,0.9359389336752888,0.05616582428142587,-6.848350189710205,2021-09-27 11:22:45,2021-09-27 11:22:45.000,0.7208727,0.30262259999999996,0.6090835,1.3295088,0.5111666,0.26800776,0.6936504,0.6911001,0.9926384,0.20081006,0.47553778,0.65794265,0.4643217000000001,0.032581713,0.745975,0.5445052,0.17424388,-0.30081025,0.81751484,0.16117336,763.95605,805.8608,804.2491,773.22345,1085.4945,-0.67889404296875,-0.0162353515625,0.75634765625,-4.119720458984375,-0.1495361328125,9.68994140625,7.000000000000001,29.0,-22.0
849.6153846153846,66.60343872102816,,,,,,,23.713772896531953,23.79428734001749,0.07839245843126899,0.02791118584471846,838.4615384615386,57.02307692307691,0.06800917431192659,84.61538461538453,5.7142857142857135,33.57142857142857,15.555555555555555,85.9375,,,0.016793350312774846,0.0010098146328809694,0.0001382248426970615,16.63013167561649,0.9360116752870892,0.05628408082056816,-6.897988496774012,2021-09-27 11:22:46,2021-09-27 11:22:46.000,0.73778313,0.67029047,0.6090835,1.1604373,0.5455159,0.33169529999999997,0.6936504,0.7212149,0.80218923,0.6344194000000001,0.47553778,0.93978167,0.59463334,0.16976812,0.745975,0.443557,0.21594332,-0.21800768,0.81751484,0.19221133,813.91943,825.2015,886.8498,784.90845,568.9377400000002,-0.640625,0.0634765625,0.8182373046875,2.429962158203125,-4.11224365234375,-9.9591064453125,13.0,24.0,-11.0
850.2747252747251,66.0262518645592,,,,,,,23.569724347906103,23.65177259325789,0.07765284548852842,0.027720128150687633,838.4615384615386,57.02307692307691,0.06800917431192659,78.84615384615371,5.7142857142857135,33.57142857142857,15.555555555555555,85.9375,,,0.016179303138232185,0.000976768389012568,0.0001294483600059003,16.56411419557519,0.9360032700066844,0.0565078976729538,-6.931260997472179,2021-09-27 11:22:47,2021-09-27 11:22:47.000,0.9515665000000001,1.017441,0.6090835,0.98341286,0.7467435,0.7100695,0.6936504,0.8491597,0.7729255,0.8197419,0.47553778,0.9379469000000001,0.52038693,0.09185928,0.745975,0.4102066,0.16289674,-0.50690585,0.81751484,0.34881973,847.3626,803.4432400000003,769.19415,815.5311,750.2564,-0.57830810546875,0.09271240234375,0.78717041015625,1.375732421875,-4.127197265625,11.611480712890625,17.0,23.0,-6.0
850.6593406593406,65.79745776462178,,,,,,,23.242351166442752,23.32634445563777,0.07734877479111979,0.02732274843232516,838.4615384615386,57.02307692307691,0.06800917431192659,76.9230769230768,5.7142857142857135,32.857142857142854,14.0,187.5,,,0.015447891076873931,0.0009372753292690194,0.00012128800619575984,16.481700301363677,0.9358697325893623,0.05678235348763925,-6.972533477619778,2021-09-27 11:22:48,2021-09-27 11:22:48.004,0.7272741,0.609025,0.6090835,0.5141379,0.5410324000000001,0.23547313,0.6936504,0.4161944,0.7110818,0.67367196,0.47553778,0.78617674,0.36718103,-0.054509893,0.745975,0.44396257,0.28124738,-0.48815104,0.81751484,0.32090205,760.32965,809.0842,822.7839,773.22345,758.71796,-0.669189453125,0.098876953125,0.8333740234375,3.42437744140625,-7.716064453125,4.964599609375,25.0,26.0,-1.0
850.8241758241759,65.77617337358231,,,,,,,23.132197223355824,23.212602644673122,0.07730877335480775,0.027187987695516686,838.4615384615386,57.02307692307691,0.06800917431192659,76.9230769230768,5.7142857142857135,32.142857142857146,14.0,187.5,,,0.014450322059047315,0.0008834764893913428,0.00011189234063004966,16.356204418074146,0.935556859374556,0.0571988974618546,-7.031645877321083,2021-09-27 11:22:49,2021-09-27 11:22:49.017,0.03471473,-0.32575540000000003,0.6090835,0.48355266,0.49329114,-0.15656061,0.6936504,0.13287182,0.8620051,0.014616209,0.47553778,0.7162689999999999,0.74790967,-0.036381193,0.745975,0.4246879,0.519674,-0.45447037,0.81751484,0.21079981,847.7655599999997,799.81683,909.41394,835.6777,757.9121,-0.650390625,0.012451171875,0.7703857421875,5.90667724609375,15.2825927734375,5.96649169921875,35.0,30.0,5.0
851.2637362637364,65.53571988859859,,,,,,,23.2148616817598,23.297762454669126,0.07698638752807682,0.02727105677454517,838.4615384615386,57.02307692307691,0.06800917431192659,76.9230769230768,5.7142857142857135,32.857142857142854,14.0,187.5,,,0.013565365003445259,0.0008386637118117803,0.00010426699938738943,16.174975514488107,0.9350074791867254,0.05780580492064601,-7.083700752095151,2021-09-27 11:22:50,2021-09-27 11:22:50.000,0.2464174,0.4866375,0.6090835,0.53436655,0.38900813,0.15998963,0.6936504,0.21569186,0.91283166,0.24344507,0.47553778,0.32782832,0.77126014,-0.106497034,0.745975,0.44161832,0.5036946,-0.47502730000000004,0.81751484,0.17438348,844.1392,796.5934,736.5567599999997,831.6484,832.0513,-0.495361328125,0.11102294921875,0.84375,22.77435302734375,-39.58221435546875,-24.052886962890625,35.0,40.0,-5.0
851.4285714285717,65.43479772424207,,,,,,,23.22402845869425,23.307426033544193,0.07685295034726418,0.027276543491754988,838.4615384615386,57.02307692307691,0.06800917431192659,76.9230769230768,5.7142857142857135,32.857142857142854,14.0,187.5,,,0.01259542323920416,0.0007937571761312082,9.711089768352094e-05,15.868106289878927,0.9339426938705724,0.05885659427844042,-7.138732967003017,2021-09-27 11:22:51,2021-09-27 11:22:51.001,0.81035703,0.55983573,0.6090835,0.75175685,0.25081006,0.24409387,0.6936504,0.82440424,0.92569065,0.2700485,0.47553778,0.75697225,0.45867749999999996,-0.056178566,0.745975,0.6190273000000001,0.38957083,-0.34599814,0.81751484,0.26446729999999996,744.21246,799.81683,598.3516,777.6557,1154.7986,-0.5592041015625,0.1220703125,0.83807373046875,-6.332855224609375,-2.385101318359375,11.536712646484375,32.0,47.0,-15.0
851.5934065934067,65.33330079600007,,,,,,,23.2148616817598,23.298556872607012,0.07671888989529656,0.027260499555327982,838.4615384615386,57.02307692307691,0.06800917431192659,71.15384615384609,5.7142857142857135,32.857142857142854,14.0,195.3125,,,0.01189599936028788,0.0007637713652941724,9.294790193902359e-05,15.575340868803115,0.932820656343476,0.05989086622250973,-7.1772420736711515,2021-09-27 11:22:52,2021-09-27 11:22:52.000,0.7216338000000001,0.54998773,0.6090835,1.2276022,0.13538449,0.23186879,0.6936504,1.0377735000000001,0.9306573,0.20993589999999998,0.47553778,1.2818178999999998,0.5029485,0.031212552,0.745975,0.8202178,0.27298903,-0.27730078,0.81751484,0.3855522,714.7985,804.2491,782.0879,764.35895,655.16486,-0.59442138671875,0.06683349609375,0.8524169921875,-9.97406005859375,-7.64129638671875,5.99639892578125,32.0,51.0,-19.0
851.5384615384614,65.37370917212537,,,,,,,23.2148616817598,23.298556872607012,0.07677129351740107,0.027262258524198498,838.4615384615386,57.02307692307691,0.06800917431192659,71.15384615384609,5.7142857142857135,32.857142857142854,14.0,195.3125,,,0.011258196165932708,0.0007376436023383997,9.008020178985532e-05,15.262378918820913,0.9315133803484816,0.06103330190549649,-7.212049773669692,2021-09-27 11:22:53,2021-09-27 11:22:53.009,1.1567068999999999,0.6709885999999999,0.6090835,1.8655035,0.70536786,0.7769567,0.6936504,1.784673,1.3291483999999998,0.6230878000000001,0.47553778,1.4343812,0.7106434,0.13015924,0.745975,1.2971494,0.33692455,-0.43977538,0.81751484,0.640622,828.8278,799.41394,835.2747,813.91943,677.7289400000002,-0.605224609375,-0.0064697265625,0.8311767578125,0.814971923828125,-5.076751708984375,9.151611328125,25.0,42.0,-17.0
852.0752628666298,65.31287655240034,,,,,,,23.280410905825683,23.365221426796733,0.0766515346692131,0.02732201240944794,838.4615384615386,57.02307692307691,0.06800917431192659,69.23076923076917,5.755395683453237,33.093525179856115,13.9,195.3125,,,0.010704046578929096,0.000719498589715074,8.941695767921242e-05,14.877091813575294,0.929738712025746,0.06249465444431571,-7.23695599172901,2021-09-27 11:22:54,2021-09-27 11:22:54.000,0.4963339,0.3438912,0.6090835,1.039147,0.24612084,0.3536609000000001,0.6936504,0.93694955,1.2106289,0.47714442,0.47553778,1.3602288999999999,0.6305144,0.024988552999999997,0.745975,0.9439337999999999,0.41347474,-0.5100260999999999,0.81751484,0.35601324,767.5824,803.0403,763.95605,781.28204,526.2271,-0.65716552734375,-0.03485107421875,0.88720703125,-8.695526123046875,-11.70867919921875,2.6019287109375,26.0,30.0,-4.0
851.3186813186812,65.61253194451359,,,,,,,23.27895331693945,23.36149461252879,0.07707164588809523,0.027344581797360143,838.4615384615386,57.02307692307691,0.06800917431192659,71.15384615384609,5.7142857142857135,33.57142857142857,14.0,195.3125,,,0.010272136752757613,0.0007033073013344202,8.961955697065957e-05,14.605474354194492,0.9283396023577918,0.0635610716807144,-7.259716633167974,2021-09-27 11:22:55,2021-09-27 11:22:55.039,0.5536824,0.22040454,0.6090835,1.0574291,0.37101457,0.1465273,0.6936504,0.95876086,1.0430158,0.48497690000000004,0.47553778,1.2413806,0.73425156,0.04438973,0.745975,1.0849571000000002,0.38918775,-0.30529448,0.81751484,0.44286242,730.1098599999997,802.2344400000003,1013.7729,743.00366,512.1245,-0.450927734375,0.117919921875,0.7781982421875,12.60589599609375,20.95001220703125,-14.4451904296875,26.0,20.0,6.0
850.8791208791208,66.11114124817149,,,,,,,23.35198550676696,23.433216470884556,0.07769745387554702,0.027444539340253045,838.4615384615386,57.02307692307691,0.06800917431192659,71.15384615384609,5.7142857142857135,34.285714285714285,14.0,195.3125,,,0.01001063482931646,0.0006964099161892858,9.16244535868986e-05,14.374629936480607,0.9270248624856108,0.06449034629635672,-7.269572110956673,2021-09-27 11:22:56,2021-09-27 11:22:56.001,1.7231303,0.95577157,0.6090835,1.3613663999999999,1.5409667,0.8055004,0.6936504,1.0833656999999999,1.5865225,0.55383945,0.47553778,1.1916897,1.1714069999999999,0.18975782,0.745975,1.3129518999999998,0.7332795999999999,-0.19003175,0.81751484,0.6913773,726.08057,801.02563,774.0293,781.28204,660.80585,-0.72808837890625,0.10479736328125,0.75799560546875,4.015045166015625,2.923431396484375,-58.07235717773438,27.0,11.0,16.0
849.8901098901097,67.25955723216317,,,,,,,23.324625233157587,23.402392464163214,0.07913912216352276,0.027444283633531682,838.4615384615386,57.02307692307691,0.06800917431192659,76.9230769230768,5.7142857142857135,34.285714285714285,14.0,195.3125,,,0.009787840748008715,0.0006916990044784008,9.547168982400936e-05,14.150433475597627,0.9255631354541232,0.06540881853904007,-7.276359661597747,2021-09-27 11:22:57,2021-09-27 11:22:57.000,1.7206323000000001,0.7771675,0.6090835,1.3613663999999999,1.5659081,0.42825326,0.6936504,1.0833656999999999,1.8248948,0.46485257,0.47553778,1.1916897,1.7379165,0.06847733,0.745975,1.3129518999999998,1.0030863,-0.30927774,0.81751484,0.6913773,734.1392,814.7253,675.7143,801.02563,698.6813400000003,-0.5250244140625,0.0189208984375,0.831298828125,3.162689208984375,-16.62841796875,-32.546539306640625,33.0,15.0,18.0
849.3406593406594,67.8550247516705,,,,,,,23.324625233157576,23.402392464163217,0.07989141224481842,0.02746203773084926,838.4615384615386,57.02307692307691,0.06800917431192659,76.9230769230768,5.7142857142857135,34.285714285714285,14.0,195.3125,,,0.009787278708084305,0.0006980929503932777,0.00010041444473748156,14.02002226576066,0.9245679643112908,0.0659462550618944,-7.26715829731526,2021-09-27 11:22:58,2021-09-27 11:22:58.000,0.62594134,0.9339718000000001,0.6090835,1.3613663999999999,0.8159321999999999,0.66350925,0.6936504,1.0833656999999999,1.7658199,0.89871025,0.47553778,1.1916897,1.7337683000000002,0.18330853,0.745975,1.3129518999999998,0.9371989,-0.16863877,0.81751484,0.6913773,857.8388,808.2784,1018.20514,813.91943,703.91943,-0.5904541015625,0.0059814453125,0.82025146484375,2.87109375,-22.550048828125,8.14971923828125,36.0,17.0,19.0
848.6263736263736,68.73565721429695,,,,,,,23.39751486468721,23.469258083189768,0.08099637172549075,0.02757104373825233,838.4615384615386,57.02307692307691,0.06800917431192659,78.84615384615371,5.7142857142857135,35.0,14.0,195.3125,,,0.009889730656091257,0.0007095446206972358,0.00010647414015835402,13.938137740193259,0.9237775209305892,0.06627696885694433,-7.250887173000272,2021-09-27 11:22:59,2021-09-27 11:22:59.001,0.30682990000000004,0.49540806,0.6090835,0.6883811,0.7664401,0.2830938,0.6936504,0.6299353,0.9100360000000001,0.40636352,0.47553778,0.60634035,0.6814366,0.09908314,0.745975,0.47129154,0.5374628,-0.27711636,0.81751484,0.357664,831.6484,807.8755,954.5421,842.5274699999999,944.87177,-0.45001220703125,0.2357177734375,0.85028076171875,-9.503021240234377,0.16448974609375,0.70281982421875,39.0,22.0,17.0
847.1358428805237,69.88005097875015,,,,,,,23.21387931239298,23.294034948776,0.08248978197066527,0.02740278257316868,838.4615384615386,57.02307692307691,0.06800917431192659,84.61538461538453,5.673758865248227,34.04255319148936,14.1,187.5,,,0.009966993952725305,0.0007165887058844067,0.00011334526500798335,13.908946472194453,0.9231323968480928,0.06636968505799762,-7.241008513914792,2021-09-27 11:23:00,2021-09-27 11:23:00.012,0.37565425,0.42521435,0.6090835,0.65912366,0.6973704000000001,0.25330725,0.6936504,0.67782366,0.8325566999999999,0.46034157,0.47553778,0.43378168,0.69312876,0.29106137,0.745975,0.38103747,0.6047022,-0.0845464,0.81751484,0.22829850000000002,807.8755,807.8755,1147.5458,826.8132,636.2271,-0.72784423828125,-0.06756591796875,0.76995849609375,28.39691162109375,0.897216796875,-13.301239013671875,42.0,33.0,9.0
846.9176213857065,70.10018771937517,,,,,,,23.295666574485892,23.378273270243284,0.08277096372688397,0.0275064138308636,838.4615384615386,57.02307692307691,0.06800917431192659,84.61538461538453,5.673758865248227,34.751773049645394,14.1,187.5,,,0.010265979848382314,0.000736741196272415,0.00012134804954708032,13.934309497451258,0.9228619277215064,0.06622946963323215,-7.213273885827548,2021-09-27 11:23:01,2021-09-27 11:23:01.005,0.4178967000000001,1.0346708,0.6090835,0.76336724,0.62268966,0.6865515999999999,0.6936504,0.75543827,0.69861996,0.8824921,0.47553778,0.3881334,0.6812369,0.4085709,0.745975,0.31799683,0.64882785,0.11893263,0.81751484,0.10519360000000001,848.5714,796.5934,678.5348,900.14655,1083.4799,-0.41943359375,0.26055908203125,0.85552978515625,-11.60400390625,5.914154052734375,15.91064453125,42.0,42.0,0.0
847.2527472527472,70.23238686292957,,,,,,,23.560692071526184,23.645641896126772,0.08289425686804916,0.027808339539674223,838.4615384615386,57.02307692307691,0.06800917431192659,84.61538461538453,5.7142857142857135,35.714285714285715,14.0,187.5,,,0.0106685553618726,0.000762382505744799,0.00013035375760119227,13.993704317034535,0.9227823073506192,0.06594267582367852,-7.1790621521824125,2021-09-27 11:23:02,2021-09-27 11:23:02.000,0.4178967000000001,1.3349613,0.6090835,0.76336724,0.62268966,0.92386144,0.6936504,0.75543827,0.69861996,0.8789948000000001,0.47553778,0.3881334,0.6812369,0.28119522,0.745975,0.31799683,0.64882785,-0.12700085,0.81751484,0.10519360000000001,835.2747,796.5934,1035.1282,858.6447,887.25275,-0.49224853515625,0.1134033203125,0.88836669921875,5.555267333984375,-0.418701171875,-1.42059326171875,41.0,49.0,-8.0
846.7539552645935,70.19518086539217,,,,,,,22.902269485596193,22.97649901892972,0.08289914730124598,0.027047136116936942,838.4615384615386,57.02307692307691,0.06800917431192659,84.61538461538453,4.964539007092199,34.751773049645394,14.1,187.5,,,0.011174333228277829,0.0007928566782758053,0.0001413148551402522,14.093761879610096,0.9228499677044044,0.06547932167347892,-7.139868086237723,2021-09-27 11:23:03,2021-09-27 11:23:03.001,0.34998912,0.56903064,0.6090835,0.7562694000000001,0.4098625,0.17148389,0.6936504,0.32850933,0.4169567,0.5106685000000001,0.47553778,0.43733618,0.6815669,0.1253012,0.745975,0.68072706,0.3073234,0.22481889,0.81751484,0.36794204,734.94507,813.91943,896.5201400000003,739.3773,847.7655599999997,-0.5059814453125,0.06829833984375,0.88555908203125,2.130889892578125,-2.310333251953125,0.85235595703125,40.0,55.00000000000001,-15.000000000000007
846.2629569012547,70.22476784056366,,,,,,,22.85608619704673,22.928608698162165,0.08298220696992857,0.02700825554357056,838.4615384615386,57.02307692307691,0.06800917431192659,84.61538461538453,4.964539007092199,34.04255319148936,14.1,187.5,,,0.011410086771298095,0.0008047454394868492,0.00014742908368446398,14.178504420694585,0.9229773177826864,0.0650969446703795,-7.124984554795077,2021-09-27 11:23:04,2021-09-27 11:23:04.014,0.84976435,0.60390025,0.6090835,0.56530184,0.82928514,0.43770894,0.6936504,0.40166929999999995,0.54839504,0.69500035,0.47553778,0.40455282,0.6953220999999999,0.08498947,0.745975,0.63176316,0.39578065,0.0133901965,0.81751484,0.2791579,835.6777,808.2784,938.4249,830.84247,821.9780000000003,-0.5069580078125,0.0560302734375,0.88818359375,8.396453857421875,-2.76641845703125,-15.215301513671875,37.0,61.0,-24.0
845.8810692853245,70.07670804612147,,,,,,,23.003546347199592,23.079558180908474,0.08284463453630485,0.027194776171826415,838.4615384615386,57.02307692307691,0.06800917431192659,84.61538461538453,4.964539007092199,34.04255319148936,14.1,179.6875,,,0.011560106356937437,0.0008096474368286963,0.00015252710267762675,14.277950909370075,0.9231629966247143,0.06465654648097141,-7.118911668226751,2021-09-27 11:23:05,2021-09-27 11:23:05.000,0.8222921999999999,0.6643331,0.6090835,0.29968837,0.76092184,0.45107058,0.6936504,0.2513156,0.6359716,0.711274,0.47553778,0.5326276999999999,0.5851871999999999,0.087111525,0.745975,0.59076405,0.5044924,-0.15157336,0.81751484,0.30103782,861.8681,801.02563,982.74725,861.8681,832.8571,-0.5072021484375,0.0291748046875,0.8890380859375,1.712188720703125,-2.863616943359375,1.487884521484375,35.0,63.0,-28.0
845.4446262956901,69.78351204878514,,,,,,,22.809809400843076,22.88048524711859,0.08254060630149265,0.02697966098712355,838.4615384615386,57.02307692307691,0.06800917431192659,76.9230769230769,4.964539007092199,33.33333333333333,14.1,187.5,,,0.011552692672653636,0.0008050888173785763,0.00015423034233055238,14.349587801095018,0.9233281447810162,0.06434527301965823,-7.124557954484555,2021-09-27 11:23:06,2021-09-27 11:23:06.001,0.505356,0.30453109999999994,0.6090835,0.40815195,0.45021594,0.07541335,0.6936504,0.21613461,0.61935925,0.30669636,0.47553778,0.58906996,0.60095316,0.10788223,0.745975,0.5306052,0.62920296,-0.038015753,0.81751484,0.35179540000000004,853.00366,804.2491,865.09155,867.50916,853.4066,-0.50262451171875,0.0755615234375,0.88519287109375,-2.0037841796875,-4.059906005859375,11.85821533203125,34.0,70.0,-36.0
844.735406437534,69.1000159451316,,,,,,,22.726273704316693,22.80120956037004,0.08180078095287151,0.026903422694402285,838.4615384615386,57.02307692307691,0.06800917431192659,76.9230769230769,4.964539007092199,32.62411347517731,14.1,187.5,,,0.011199033449592593,0.0007772048139131425,0.0001506299355946638,14.409372213235102,0.9234893350637196,0.06408949129757982,-7.159806646562076,2021-09-27 11:23:07,2021-09-27 11:23:07.001,0.46947676,0.42131466,0.6090835,0.44323152,0.49627402,0.08912899,0.6936504,0.684701,0.5556601,0.15413435,0.47553778,0.9602554,0.48591447,0.020662531,0.745975,0.4942641,0.5538719,-0.23661561,0.81751484,0.4437698000000001,740.58606,805.4579,778.0586,732.1245,529.45056,-0.493408203125,0.04656982421875,0.89508056640625,3.222503662109375,-3.237457275390625,-7.07305908203125,35.0,73.0,-38.0
844.1208791208791,68.90478941935676,,,,,,,21.82550447742493,21.903805919201805,0.08162905470495951,0.02585589933535987,838.4615384615386,57.02307692307691,0.06800917431192659,76.9230769230769,4.285714285714286,32.142857142857146,14.0,187.5,,,0.010562778593413437,0.0007308353451171918,0.0001425730494770212,14.453021003957687,0.92362765705824,0.06390550853038421,-7.221322369663915,2021-09-27 11:23:08,2021-09-27 11:23:08.000,0.43766898,0.60055125,0.6090835,0.55186844,0.5628719,0.104295656,0.6936504,0.8143729999999999,0.6563776,0.36251798,0.47553778,0.91294855,0.5328654,0.0419067,0.745975,0.4489415,0.41733193,-0.25111893,0.81751484,0.35893014,745.0183,803.4432400000003,486.73992999999996,746.2271,850.1831699999997,-0.482177734375,0.03759765625,0.89825439453125,1.936492919921875,-4.747772216796875,-0.904693603515625,40.0,70.0,-30.0
844.1352973267866,68.81219857645553,,,,,,,22.726273704316693,22.8068098247894,0.08151797323766755,0.026922548762368315,838.4615384615386,57.02307692307691,0.06800917431192659,76.9230769230769,4.964539007092199,32.62411347517731,14.1,187.5,,,0.01021960862519661,0.0007072063535224293,0.00013760014866640342,14.450674225839649,0.9236465287624775,0.06391719267401931,-7.254188062627988,2021-09-27 11:23:09,2021-09-27 11:23:09.031,0.6082001,0.4329831,0.6090835,0.36668578,0.4988415,0.20685448,0.6936504,0.20953543,0.62502766,0.41239035,0.47553778,0.56658345,0.38751245,-0.012604408999999999,0.745975,0.57050747,0.48312294,-0.17291102,0.81751484,0.18472229,857.4359,798.60803,786.5201400000003,842.5274699999999,813.1135,-0.48858642578125,0.0367431640625,0.8990478515625,0.67291259765625,-3.551483154296875,2.639312744140625,46.0,68.0,-22.0
843.6988543371523,69.04320837662773,,,,,,,22.83758673129045,22.91295478064585,0.08183394824077507,0.02706841026734911,838.4615384615386,57.02307692307691,0.06800917431192659,76.9230769230769,4.964539007092199,33.33333333333333,15.666666666666664,195.3125,,,0.009701543366715571,0.0006733729886283629,0.00012984875223314034,14.407384214322693,0.923537391589828,0.06410167021656292,-7.303211163968798,2021-09-27 11:23:10,2021-09-27 11:23:10.001,0.49648666,0.6165253,0.6090835,0.45703370000000004,0.5210836,0.25718158,0.6936504,0.2985708,0.5931662,0.21034501,0.47553778,0.4967969,0.5102447,-0.005784344,0.745975,0.4283537,0.42004874,-0.07213931,0.81751484,0.19422165,809.8901400000003,801.8315,757.9121,802.6374,841.7216,-0.4791259765625,0.0430908203125,0.90216064453125,2.893524169921875,-3.671112060546875,-0.94207763671875,50.0,60.0,-10.0
843.153300600109,69.2660047673991,,,,,,,22.689048005773266,22.757426755268067,0.08215113991500651,0.02690975412137328,838.4615384615386,57.02307692307691,0.06800917431192659,76.9230769230769,4.964539007092199,32.62411347517731,15.666666666666664,195.3125,,,0.00896479560875922,0.000627556936684712,0.00011865422475064795,14.28523068539226,0.9231582080937621,0.06462326219469187,-7.3736761553220465,2021-09-27 11:23:11,2021-09-27 11:23:11.000,0.42323503,0.46045598,0.6090835,0.6046807,0.25527292,0.26340532,0.6936504,0.5538967,0.24751882,0.29095959999999993,0.47553778,0.46980363,0.5913695999999999,0.056812376,0.745975,0.45954058,0.38434613,-0.19783807,0.81751484,0.30382395,689.0110000000003,775.2381,451.28204000000005,661.6117,631.39197,-0.85382080078125,0.09210205078125,0.46441650390625,10.51239013671875,44.808502197265625,1.203765869140625,52.0,54.0,-2.0
842.6077468630659,69.24003436474071,,,,,,,22.83758673129045,22.91295478064585,0.08217350792526368,0.02710346162412133,838.4615384615386,57.02307692307691,0.06800917431192659,76.9230769230769,4.964539007092199,33.33333333333333,15.666666666666664,195.3125,,,0.008281482328600173,0.0005862715264616787,0.00010843514214165426,14.125677190194375,0.9226056103743172,0.06531408002263868,-7.441727519966728,2021-09-27 11:23:12,2021-09-27 11:23:12.015,0.5662826,0.65693545,0.6090835,0.7881375,0.34821203,0.26945633,0.6936504,0.55631983,0.10202079,0.16825652,0.47553778,0.31865978,0.5404613,0.07809361,0.745975,0.62425184,0.36990413,-0.3590716,0.81751484,0.44122398,758.71796,769.59705,219.19414,809.8901400000003,593.5165,-0.9727783203125,0.0067138671875,0.2716064453125,-1.3458251953125,-12.66571044921875,23.155670166015625,49.0,54.0,-5.0
842.1993499458287,68.91018649607106,,,,,,,22.839292982869736,22.919081949946065,0.08182170468369923,0.0271186305051634,838.4615384615386,57.02307692307691,0.06800917431192659,75.0,4.929577464788731,33.80281690140845,14.2,187.5,,,0.0076368117048236294,0.0005495286358118893,9.897734382018326e-05,13.897022297192548,0.9217282904132028,0.06632559628255102,-7.506449672990892,2021-09-27 11:23:13,2021-09-27 11:23:13.001,0.5662826,0.69529235,0.6090835,0.7881375,0.34821203,0.20574582,0.6936504,0.55631983,0.10202079,0.11672343,0.47553778,0.31865978,0.5404613,0.062480442000000004,0.745975,0.62425184,0.36990413,-0.30951738,0.81751484,0.44122398,830.84247,818.3516,1285.348,870.32965,822.3810000000003,-0.656005859375,0.23907470703125,0.7318115234375,-4.366455078125,-4.837493896484375,3.297271728515625,48.0,53.0,-5.0
841.8743228602382,68.85406786971753,,,,,,,22.839292982869736,22.919081949946065,0.08178663489318484,0.027129100345137082,834.6153846153846,51.32076923076927,0.0614903225806452,69.23076923076928,4.929577464788731,33.80281690140845,12.909090909090908,179.6875,,,0.007058914411354942,0.0005194856108428554,9.074086638763578e-05,13.588277064887295,0.9204309209994124,0.06773713227984188,-7.562671445897416,2021-09-27 11:23:14,2021-09-27 11:23:14.009,0.5662826,0.69529235,0.6090835,1.6348267,0.34821203,0.20574582,0.6936504,1.5816568000000002,0.10202079,0.11672343,0.47553778,1.2877178,0.5404613,0.062480442000000004,0.745975,0.99593264,0.36990413,-0.30951738,0.81751484,0.5938306999999999,757.50916,802.6374,107.58242,734.94507,1016.5934,-0.45037841796875,0.03045654296875,0.90570068359375,1.173858642578125,-10.16845703125,-2.758941650390625,46.0,50.0,-4.0
841.4075286415712,69.11871012973536,,,,,,,22.88380735483618,22.965379884305797,0.08214653158776174,0.027197055619149785,830.7692307692308,57.02307692307691,0.06863888888888886,69.23076923076928,4.964539007092199,34.04255319148936,12.818181818181818,179.6875,,,0.0063740408105487775,0.00048682085753525917,8.156379622958764e-05,13.09319580681097,0.9181288071889956,0.07012259044590112,-7.627614351558299,2021-09-27 11:23:15,2021-09-27 11:23:15.001,0.9982810999999999,0.93990856,0.6090835,1.4912722,1.0448690999999999,0.58619004,0.6936504,1.3968181999999998,1.0733476999999998,0.2360946,0.47553778,1.3075021999999998,0.7470296999999999,0.11542128,0.745975,0.8847565000000001,0.75420105,-0.17330720000000002,0.81751484,0.44357133,861.8681,808.2784,505.27472,880.40295,1187.8389,-0.4498291015625,0.01690673828125,0.922119140625,6.519775390625,-3.1402587890625,-13.600311279296875,43.0,47.0,-4.0
841.3529732678668,69.13020172429283,,,,,,,22.46439843300704,22.54263299404543,0.08216551663897598,0.026700325721502983,830.7692307692308,57.02307692307691,0.06863888888888886,69.23076923076928,4.25531914893617,33.33333333333333,14.1,187.5,,,0.005872576606183865,0.0004652253548091575,7.542291174239283e-05,12.62307942909278,0.9156979090426078,0.07254156279268688,-7.672988635775857,2021-09-27 11:23:16,2021-09-27 11:23:16.012,0.4818737,0.8391987,0.6090835,0.66313785,0.568534,0.51931477,0.6936504,0.8553066999999999,0.83008146,0.29608014,0.47553778,0.90903515,0.6580446,0.13499652,0.745975,0.6325644,0.7711134,-0.21825735,0.81751484,0.5545955,834.4689,802.2344400000003,734.1392,858.24176,902.96704,-0.44451904296875,0.01300048828125,0.92529296875,2.76641845703125,-1.667327880859375,-1.4654541015625,45.0,39.0,6.0
841.7894162575012,68.91444807481572,,,,,,,22.161323524442967,22.227495483957163,0.08186661265141752,0.026326445897799068,830.7692307692308,57.02307692307691,0.06863888888888886,69.23076923076928,4.25531914893617,32.62411347517731,12.818181818181818,179.6875,,,0.005428016015351692,0.00045312113951028376,7.083238188500329e-05,11.979171885951045,0.911969723944244,0.07612961335113536,-7.69935105209307,2021-09-27 11:23:17,2021-09-27 11:23:17.001,0.7043835999999999,0.5724524000000001,0.6090835,0.51711535,0.42125607,0.23860957,0.6936504,0.46239440000000004,1.0330846,0.23262283,0.47553778,0.7821324000000001,0.7492045999999999,-0.030188186000000002,0.745975,0.54691184,0.6852094,-0.35090303,0.81751484,0.51865613,779.2674,785.3113400000003,828.0219999999997,814.3223,1013.7729,-0.4144287109375,0.01983642578125,0.93804931640625,1.547698974609375,-2.220611572265625,3.9776611328125,44.0,34.0,10.0
842.7410617551462,68.04478883732271,,,,,,,22.16795028999278,22.227502275349025,0.08074222548929598,0.026304580725928315,838.4615384615386,57.02307692307691,0.06800917431192659,69.23076923076928,4.225352112676056,33.098591549295776,12.909090909090908,179.6875,,,0.005176729749646476,0.0004525598074304049,6.917609791468214e-05,11.438774863900301,0.9084427393384265,0.0794178354017078,-7.70059063244121,2021-09-27 11:23:18,2021-09-27 11:23:18.000,0.8373216,0.4844011,0.6090835,0.59264207,0.50232875,0.29842365,0.6936504,0.53445274,0.97140306,0.49429327,0.47553778,0.81434107,0.83758634,0.12770475,0.745975,0.60960454,0.6628035,-0.17901686,0.81751484,0.39207426,750.65936,811.9048,117.65568,712.3810000000003,671.685,-0.5146484375,0.032470703125,0.8831787109375,1.5252685546875,-3.0206298828125,-0.067291259765625,48.0,30.0,18.0
844.8445171849427,66.76916396669894,,,,,,,22.539530410089604,22.59356224719844,0.07903130411401213,0.02667890949353884,838.4615384615386,57.02307692307691,0.06800917431192659,76.9230769230769,4.25531914893617,34.04255319148936,12.818181818181818,179.6875,,,0.0049874831483176715,0.0004573542609130071,6.893190678019499e-05,10.905076380749703,0.9045505646808666,0.08294765970439544,-7.690052279379648,2021-09-27 11:23:19,2021-09-27 11:23:19.001,0.44057694,0.35561076,0.6090835,0.597636,0.5666034000000001,0.24682236,0.6936504,0.66916317,0.67700756,0.47220406,0.47553778,0.766019,0.6671467,0.19534653,0.745975,0.6584074000000001,0.54703575,-0.0869923,0.81751484,0.41881769999999996,801.4286,791.3553,292.12453999999997,804.65204,814.7253,-0.53265380859375,0.02081298828125,0.8720703125,1.74957275390625,-4.50103759765625,-0.40374755859375,52.0,31.0,21.0
846.1538461538463,66.47761303369467,,,,,,,22.689048005773266,22.732026192315164,0.07856445176709369,0.026814329461368403,838.4615384615386,57.02307692307691,0.06800917431192659,76.9230769230769,4.25531914893617,34.751773049645394,12.818181818181818,179.6875,,,0.0048077754408379116,0.0004669484928185073,7.00980512078321e-05,10.296157959131884,0.8995202187187569,0.0873646482784341,-7.6692916001287,2021-09-27 11:23:20,2021-09-27 11:23:20.000,0.023791722999999997,0.26528070000000004,0.6090835,0.050716642,0.54330474,-0.19206832,0.6936504,0.48644334,0.49954274,0.24147494,0.47553778,0.5056965,0.5973068,0.114820525,0.745975,0.5986658,0.5730626,-0.17345741,0.81751484,0.34549463,808.6813400000003,802.6374,890.07324,808.2784,920.293,-0.53448486328125,0.035888671875,0.87310791015625,5.8917236328125,-3.33465576171875,-12.463836669921875,56.99999999999999,40.0,16.999999999999993
847.3540643753407,66.04568008537883,,,,,,,22.265970836950242,22.33060725190325,0.07794342750225304,0.026277056750019186,838.4615384615386,57.02307692307691,0.06800917431192659,69.23076923076917,3.546099290780142,34.04255319148936,12.818181818181818,179.6875,,,0.004732462157044571,0.0004786916963623065,7.246359542378936e-05,9.886242424942171,0.8956859959821517,0.09059923452032798,-7.6444538079408115,2021-09-27 11:23:21,2021-09-27 11:23:21.002,0.4573494000000001,0.56029594,0.6090835,0.41107659999999996,0.41502142,0.07733652,0.6936504,0.35039175,0.5360365,0.10952013,0.47553778,0.23721276,0.72315645,0.111579165,0.745975,0.714206,0.49570101,0.019038707,0.81751484,0.43211009999999994,817.1429,800.6227,952.9304,830.84247,859.0476,-0.5794677734375,0.00341796875,0.839111328125,3.820648193359375,-1.24114990234375,-3.84307861328125,63.0,50.0,13.0
848.3516483516486,66.13496155395791,,,,,,,22.19299559951591,22.269866462107743,0.07795701426697108,0.026160137299947508,838.4615384615386,57.02307692307691,0.06800917431192659,76.9230769230768,3.571428571428571,33.57142857142857,12.727272727272727,179.6875,,,0.00468661106493403,0.0004903230975073306,7.556147531983413e-05,9.55820985949772,0.8922636758117585,0.09335050066149593,-7.6204460014888165,2021-09-27 11:23:22,2021-09-27 11:23:22.001,0.46499896,0.072148256,0.6090835,0.19704737,0.34371334,0.14294186,0.6936504,0.17923182,0.5803550000000001,0.13932231,0.47553778,0.18877076,0.7458684,0.12307297,0.745975,0.5830422,0.4458022,0.08550335,0.81751484,0.45852894,774.43225,803.4432400000003,792.1612,749.45056,666.4469,-0.5902099609375,-0.00732421875,0.82940673828125,1.532745361328125,-4.508514404296875,-0.560760498046875,70.0,47.0,23.0
848.956043956044,66.4299120925621,,,,,,,22.26002961159619,22.336117364062538,0.07824894182154102,0.026220473686560792,838.4615384615386,57.02307692307691,0.06800917431192659,76.9230769230768,3.571428571428571,33.57142857142857,14.0,195.3125,,,0.0046780309383727655,0.0005046648865884777,8.036166950833699e-05,9.269578809011543,0.8888428339018601,0.09588815761917466,-7.591615939876722,2021-09-27 11:23:23,2021-09-27 11:23:23.023,0.028202299,-0.152064,0.6090835,0.17323764,0.089378156,-0.04752748,0.6936504,0.11591952,0.25352046,0.30785805,0.47553778,0.35623273,0.69878393,0.15778305,0.745975,0.46039579999999997,0.6008495,-0.15403695,0.81751484,0.31492937,848.9743699999997,813.5165,987.5824,830.4396,876.77655,-0.5870361328125,-0.00250244140625,0.83831787109375,2.100982666015625,-3.237457275390625,-0.2093505859375,72.0,46.0,26.0
849.3956043956042,66.71674556457248,,,,,,,22.25046568865781,22.327553166392285,0.07854613941879936,0.026195644966270276,838.4615384615386,57.02307692307691,0.06800917431192659,76.9230769230768,3.571428571428571,33.57142857142857,14.0,195.3125,,,0.0047380957991610935,0.0005185482743793523,8.529849604845601e-05,9.13723183214156,0.8869612013679364,0.09707110617987384,-7.564477430714701,2021-09-27 11:23:24,2021-09-27 11:23:24.001,-0.005059194,-0.28583756,0.6090835,0.23649967,0.1452763,0.010205148,0.6936504,0.13652949,0.6665033,0.16264208,0.47553778,0.48530954,0.49303982,0.059001267,0.745975,0.39502266,0.5571618,-0.070838206,0.81751484,0.39171004,762.74725,811.0989,639.0476,771.6117,753.4798599999997,-0.61572265625,-0.0311279296875,0.81103515625,7.753448486328125,4.08233642578125,-11.312408447265625,70.0,42.0,28.0
849.4505494505496,66.73636312125466,,,,,,,22.58279315113993,22.66419496083038,0.07856415322165812,0.026585176930837437,838.4615384615386,57.02307692307691,0.06800917431192659,76.9230769230768,3.571428571428571,34.285714285714285,14.0,195.3125,,,0.004879368307234774,0.0005368091024528677,9.238105673488302e-05,9.089578185129948,0.885779525982526,0.09745001450470084,-7.529868015571156,2021-09-27 11:23:25,2021-09-27 11:23:25.033,0.06876065599999999,0.16369206,0.6090835,0.27499238,0.33276305,0.06404475,0.6936504,0.10761765,0.7095891,0.10213685,0.47553778,0.45775837,0.77462536,0.2343652,0.745975,0.43706042,0.5151319000000001,0.08278199,0.81751484,0.2611308,824.3956,799.81683,1166.8865,839.707,811.0989,-0.63970947265625,-0.031005859375,0.79168701171875,1.495361328125,-1.5252685546875,-0.725250244140625,70.0,41.0,29.0
849.8063087991145,67.15155283501271,,,,,,,22.740015605765315,22.815999760742674,0.07901983327225058,0.0267590571760992,838.4615384615386,57.02307692307691,0.06800917431192659,76.9230769230768,3.5971223021582728,35.25179856115108,13.9,195.3125,,,0.00504886675879985,0.0005527106754235555,9.876242398198587e-05,9.134737184026314,0.8857132880475936,0.09696100393522196,-7.500675884269875,2021-09-27 11:23:26,2021-09-27 11:23:26.001,0.33816007,0.42603976,0.6090835,0.9186252,0.43653739999999996,0.09453526,0.6936504,0.74037105,0.6233109,0.43600544,0.47553778,0.78575647,0.77878845,0.27695245,0.745975,0.5690419,0.6014275,-0.19698954,0.81751484,0.18054219,830.4396,801.8315,1007.7289400000001,833.663,873.5531,-0.611083984375,-0.04144287109375,0.8115234375,1.21124267578125,-6.41510009765625,-1.12152099609375,75.0,41.0,34.0
850.6593406593406,67.18039643669579,,,,,,,22.7798626070087,22.8567841424369,0.0789745003970975,0.0267790659764603,838.4615384615386,57.02307692307691,0.06800917431192659,78.84615384615371,3.571428571428571,35.714285714285715,14.0,195.3125,,,0.005277169872621686,0.0005707194542695009,0.00010583893722073136,9.246521794804174,0.8863639115731207,0.09585917075015042,-7.468612792568227,2021-09-27 11:23:27,2021-09-27 11:23:27.008,0.6213871,0.34050503,0.6090835,0.9223826999999999,0.38725588,-0.019703394,0.6936504,0.6433287,0.6762372,0.43554622,0.47553778,0.76865596,0.7966171,0.30485502,0.745975,0.5231279000000001,0.64004225,0.04813154,0.81751484,0.31458159999999996,753.8828,805.8608,803.0403,759.5238,754.2857,-0.60247802734375,-0.03485107421875,0.81781005859375,1.233673095703125,-3.8580322265625,-0.471038818359375,83.0,40.0,43.0
850.9890109890109,67.11926574591587,,,,,,,22.714362763793012,22.78974579299068,0.07887207105989598,0.02669172277253569,838.4615384615386,57.02307692307691,0.06800917431192659,78.84615384615371,3.571428571428571,35.714285714285715,14.0,195.3125,,,0.005535440207393771,0.0005881053564857643,0.00011297625607904898,9.412327478992724,0.8875845170105618,0.09430021628460683,-7.438604448419175,2021-09-27 11:23:28,2021-09-27 11:23:28.001,0.15909718,-0.6224918,0.6090835,-0.014033823,-0.25423229999999997,-0.4220877000000001,0.6936504,-0.10853006,0.38423002,0.18022202,0.47553778,0.24946222,0.7246266,0.14985855,0.745975,0.4628102,0.5762961999999999,0.09957524,0.81751484,0.44576309999999997,860.2564,808.6813400000003,849.3773,857.8388,971.4652,-0.600830078125,-0.03594970703125,0.82147216796875,1.65985107421875,-2.983245849609375,-0.396270751953125,94.0,45.0,49.0
851.6483516483514,66.9156387312542,,,,,,,22.714362763793012,22.78974579299068,0.07857191128444044,0.026671058212969855,838.4615384615386,57.02307692307691,0.06800917431192659,78.84615384615371,3.571428571428571,35.714285714285715,14.0,195.3125,,,0.005891128820742471,0.0006076212608798452,0.00012147733054233003,9.695396129180905,0.8898680443994327,0.0917825360142981,-7.4059587962816975,2021-09-27 11:23:29,2021-09-27 11:23:29.000,0.18088685,-0.12798525,0.6090835,0.34663540000000004,0.111457355,0.02810617,0.6936504,0.24870099,0.49218032,0.09075289,0.47553778,0.582116,0.7564523,0.18480839999999998,0.745975,0.61549157,0.54676193,-0.08493107,0.81751484,0.409144,779.67035,802.6374,1047.2161,771.2088,760.7326,-0.60577392578125,-0.03466796875,0.82012939453125,2.43743896484375,-2.811279296875,0.418701171875,100.0,41.0,59.0
