HRV_MeanNN,HRV_SDNN,HRV_SDANN1,HRV_SDNNI1,HRV_SDANN2,HRV_SDNNI2,HRV_SDANN5,HRV_SDNNI5,HRV_RMSSD,HRV_SDSD,HRV_CVNN,HRV_CVSD,HRV_MedianNN,HRV_MadNN,HRV_MCVNN,HRV_IQRNN,HRV_pNN50,HRV_pNN20,HRV_HTI,HRV_TINN,HRV_ULF,HRV_VLF,HRV_LF,HRV_HF,HRV_VHF,HRV_LFHF,HRV_LFn,HRV_HFn,HRV_LnHF,Time,TimeStamp,Delta_TP9,Delta_AF7,Delta_AF8,Delta_TP10,Theta_TP9,Theta_AF7,Theta_AF8,Theta_TP10,Alpha_TP9,Alpha_AF7,Alpha_AF8,Alpha_TP10,Beta_TP9,Beta_AF7,Beta_AF8,Beta_TP10,Gamma_TP9,Gamma_AF7,Gamma_AF8,Gamma_TP10,RAW_TP9,RAW_AF7,RAW_AF8,RAW_TP10,AUX_RIGHT,Accelerometer_X,Accelerometer_Y,Accelerometer_Z,Gyro_X,Gyro_Y,Gyro_Z,Attention,Meditation,A_M
749.4436381228835,48.761602672712534,,,,,,,33.401298897383555,33.50575943111665,0.06506373553966613,0.0445681265385655,738.4615384615386,45.61846153846145,0.061774999999999886,61.53846153846154,12.578616352201259,56.60377358490565,7.95,101.5625,,,0.026072264771401017,0.009228119715557172,0.0027451876156165587,2.825306300204064,0.6852903854647665,0.24255436849989326,-4.685499965677496,2021-10-14 15:22:11,2021-10-14 15:22:11.275,3.756863507846477,0.07402093140225469,3.790434536728384,3.757433670049112,2.858051766871422,-0.3123656377770901,2.8464859393740882,2.852015507341713,3.0956154513934715,0.4094063790138813,3.1051504761856568,3.036320933107305,2.3442306938566784,0.2470258884103164,2.338722240148957,2.340330699728415,1.739213561525283,0.1037937447676977,1.7282488504048132,1.800355879653544,788.1318681318681,859.4505494505495,787.3260073260074,803.040293040293,698.6813186813188,-0.160706,0.052673000000000005,1.007019,5.390778,-6.116028,-0.284119,89.0,100.0,-11.0
748.0406386066762,47.95040397331873,,,,,,,32.0217325648176,32.12221409103915,0.06410133554058324,0.04280747717725907,738.4615384615386,34.21384615384618,0.04633125000000003,53.846153846153925,11.320754716981131,55.9748427672956,7.95,101.5625,,,0.02400501605232264,0.00844480034781021,0.0026292922279021,2.842579464717279,0.6843108901900096,0.24073588748663904,-4.774204370468953,2021-10-14 15:22:12,2021-10-14 15:22:12.280,3.399299039070814,0.07402093140225469,3.414056513767417,2.943219356636643,2.456668318139087,-0.3123656377770901,2.456269503311483,1.99752549484923,2.863018105232358,0.4094063790138813,2.87750680977369,2.5919299126189665,1.966168639048258,0.2470258884103164,1.9681109231600147,1.5408699555842098,1.378819277072048,0.1037937447676977,1.3783594190787007,0.9718817884320748,753.0769230769231,1161.245421245421,793.3699633699632,767.5824175824176,771.6117216117218,-0.162109,0.049316000000000006,0.9818120000000001,4.837494,-2.347717,1.136475,72.0,70.0,2.0
747.8471214320269,47.9576733238385,,,,,,,32.04511462895167,32.146413520428126,0.06412764313648221,0.04284982011776628,738.4615384615386,34.21384615384618,0.04633125000000003,53.846153846153925,11.320754716981131,55.9748427672956,7.95,101.5625,,,0.022850112247122696,0.007962899204521175,0.00256617893390633,2.869571956172553,0.6845616080914435,0.23855878805162095,-4.832962123764943,2021-10-14 15:22:13,2021-10-14 15:22:13.282,0.7177486893838998,0.07402093140225469,1.205134551898881,1.2108000294002959,0.4279925799345407,-0.3123656377770901,0.6738464681056445,0.9750268950379593,0.4317424198842909,0.4094063790138813,0.4313944057366951,0.6524736254699401,0.2621621731937095,0.2470258884103164,0.08068419322967807,0.4795578696510112,0.028897213512339037,0.1037937447676977,-0.2554132329653213,0.2398164499389386,771.6117216117218,920.6959706959708,773.6263736263736,757.1062271062273,322.34432234432234,-0.176697,0.051940999999999994,0.9917600000000001,5.323486,-4.0898129999999995,0.112152,52.0,57.99999999999999,-5.999999999999992
746.9230769230769,48.42193573085793,,,,,,,32.130043527377794,32.22790647330597,0.06482854423286853,0.04301653613346152,738.4615384615386,45.61846153846145,0.061774999999999886,53.846153846153925,11.25,56.25,8.0,109.375,,,0.021692814411193983,0.007451765956647678,0.002480215487280739,2.911097119447497,0.6859432234937355,0.2356304840918265,-4.8993042335197226,2021-10-14 15:22:14,2021-10-14 15:22:14.274,0.4709680419583608,0.07402093140225469,1.3072211369204958,1.35774997438169,0.4133000761301558,-0.3123656377770901,0.663401160338302,1.097990632423269,0.3535813011800909,0.4094063790138813,0.4808286986296987,1.121342208200952,0.1471334843030152,0.2470258884103164,-0.01404776922449214,0.6454156488742612,-0.2789606640861564,0.1037937447676977,-0.4395282460051759,0.4957445968721054,779.6703296703297,375.1282051282051,798.2051282051282,783.6996336996338,1043.9926739926739,-0.199097,0.036316,1.013672,4.493561,-4.815062999999999,0.86731,27.0,34.0,-7.0
746.7343976777937,48.900327010488326,,,,,,,31.992480953190533,32.09119584056623,0.06548556911608643,0.042843186349364966,738.4615384615386,45.61846153846145,0.061774999999999886,53.846153846153925,11.320754716981131,55.34591194968554,8.368421052631579,109.375,,,0.02067543091533016,0.00692959386692874,0.00239202719604966,2.9836425211011246,0.6892487611876313,0.23100916289839624,-4.971954072558456,2021-10-14 15:22:15,2021-10-14 15:22:15.274,0.8436247895201252,0.07402093140225469,0.6094256820090989,1.40177818445932,0.6492546119625044,-0.3123656377770901,0.2583846464058426,0.8155127172831947,1.0116695916876108,0.4094063790138813,0.358013274740396,1.065984356391338,0.6936267759050178,0.2470258884103164,0.2463030944759789,0.8533812163649956,0.056683326250522574,0.1037937447676977,-0.3288732258983016,0.5238790594829466,778.4615384615387,996.8498168498168,792.5641025641023,798.6080586080586,613.2600732600732,-0.233765,0.046204,0.972656,3.917847,-4.456176999999999,2.512207,14.000000000000002,16.0,-1.9999999999999984
746.3957426221577,49.197144855964225,,,,,,,31.992480953190533,32.09327704433714,0.0659129494537711,0.042862625181646886,738.4615384615386,45.61846153846145,0.061774999999999886,53.846153846153925,11.320754716981131,55.34591194968554,8.368421052631579,109.375,,,0.019960076014500918,0.006526468933646546,0.0023106899560327502,3.0583269785593834,0.6931247420426295,0.2266352639537333,-5.031889227179464,2021-10-14 15:22:16,2021-10-14 15:22:16.274,1.4139064668047645,0.07402093140225469,0.6535586633421991,1.6509388561715908,0.9482150334514128,-0.3123656377770901,0.4766741038439627,0.8168457684421571,1.092656806915635,0.4094063790138813,0.2861677885360255,0.8683132409887313,0.9202924565026418,0.2470258884103164,0.3873422922537548,0.9411116123575041,0.2864885080011452,0.1037937447676977,0.1067829727217948,0.6370513464627592,789.3406593406594,1196.703296703297,797.3992673992674,790.1465201465203,637.4358974358976,-0.330627,-0.002014,0.93689,-17.099457,8.575897,33.279266,9.0,17.0,-8.0
745.6730769230769,49.66253202560632,,,,,,,31.89755101194621,31.997008422874547,0.06660094559204457,0.04277685757888338,738.4615384615386,45.61846153846145,0.061774999999999886,53.846153846153925,11.25,55.00000000000001,8.421052631578947,109.375,,,0.01937036149581382,0.006153527977056956,0.002226496321663769,3.1478464984696584,0.6980213406484902,0.2217456731094851,-5.090729706834722,2021-10-14 15:22:17,2021-10-14 15:22:17.278,1.536538271991859,0.07402093140225469,0.784132087371538,1.449848832155372,0.9459492504924608,-0.3123656377770901,0.4720499948326109,0.6914043419588871,1.002836990771085,0.4094063790138813,0.4023128228634963,0.8628598021762188,0.7845906758818376,0.2470258884103164,0.4415737805936271,0.8702934266171172,0.3393520923438221,0.1037937447676977,0.3116447418977371,0.6979334050956474,775.2380952380953,1.208791208791209,773.2234432234433,736.959706959707,961.3919413919414,-0.340088,0.007506999999999998,0.933167,3.409424,-4.164581,-0.149536,7.000000000000001,18.0,-11.0
744.3860487338749,51.18599659997518,,,,,,,31.896420752252645,31.98838773479539,0.06876270274951736,0.042849299508642365,738.4615384615386,45.61846153846145,0.061774999999999886,61.53846153846154,11.180124223602483,54.6583850931677,8.473684210526315,132.8125,,,0.018858830005202443,0.005800738473179421,0.0021367570697642686,3.2511084739294933,0.7037841800853613,0.21647514554773487,-5.149770046572675,2021-10-14 15:22:18,2021-10-14 15:22:18.284,0.7154500813087009,0.07402093140225469,0.7892573361692421,1.15328663539549,0.3369348229431688,-0.3123656377770901,0.05335586411407681,0.4417916448417772,0.664151105554663,0.4094063790138813,0.4281565402363231,0.8329127510641829,0.3375048930321082,0.2470258884103164,0.1817317060908544,0.6013222451220207,0.019187464641444458,0.1037937447676977,-0.1433801208028642,0.4832338591741446,777.2527472527472,16.11721611721612,781.2820512820513,765.9706959706958,605.2014652014652,-0.299072,-0.008118,0.9543459999999999,3.813171,-6.265564,-1.368256,25.0,24.0,1.0
743.8461538461537,52.01317238543057,,,,,,,32.00819551931449,32.10312844117412,0.06992463712622518,0.043030666158333855,738.4615384615386,45.61846153846145,0.061774999999999886,61.53846153846154,11.25,55.00000000000001,8.888888888888891,132.8125,,,0.018495424888340897,0.0054494333815989,0.002041250046650405,3.394008806639308,0.7117427766793745,0.209705636381106,-5.212243642390996,2021-10-14 15:22:19,2021-10-14 15:22:19.275,0.1342205152983136,0.07402093140225469,0.5870804853541179,1.020013649436348,0.2037027048087673,-0.3123656377770901,-0.3571087662614671,0.5819386348594612,0.5546393875378081,0.4094063790138813,0.2415633774119415,0.6057484979483145,0.3443685035011354,0.2470258884103164,0.1085111683301415,0.6031923097588121,-0.03207114173409428,0.1037937447676977,-0.2484836628476836,0.4042676869800836,788.5347985347986,118.46153846153852,793.3699633699632,767.5824175824176,788.5347985347986,-0.27618400000000004,0.018677000000000003,0.976685,5.375824,-6.975861,1.532745,28.000000000000004,35.0,-6.9999999999999964
743.4134615384614,52.34515061492716,,,,,,,32.10107404756508,32.19953708928186,0.07041189502622291,0.043180646717283416,738.4615384615386,45.61846153846145,0.061774999999999886,61.53846153846154,11.25,55.625,9.411764705882351,132.8125,,,0.018298438937768616,0.005207395663705738,0.001968077819925404,3.5139328984168072,0.718320713169946,0.20442072570412007,-5.257675420804088,2021-10-14 15:22:20,2021-10-14 15:22:20.275,0.4995657658663388,0.07402093140225469,0.3686690191930088,0.947919658088392,0.3758273928239454,-0.3123656377770901,-0.2667856808093424,0.7556878032098987,0.6407481731687278,0.4094063790138813,0.2545486003321163,0.8273205527023386,0.2924961523454987,0.2470258884103164,0.07120000101768745,0.7022239472305356,-0.02770783506058442,0.1037937447676977,-0.36812486284020096,0.347666460287591,793.7728937728937,394.8717948717949,778.8644688644687,792.1611721611722,909.4139194139194,-0.282471,-0.001099,0.950684,3.20755,-5.069275,0.8747860000000001,32.0,38.0,-6.0
742.5961538461537,53.09719994389142,,,,,,,32.01982006864245,32.116552134703944,0.0715021208619022,0.04311875290869889,738.4615384615386,45.618461538461546,0.06177500000000001,61.53846153846154,11.25,54.37499999999999,10.0,156.25,,,0.018165512710715745,0.004999521760693961,0.0018996080028893746,3.63345007387152,0.7247465320657336,0.199465113688352,-5.298413018983793,2021-10-14 15:22:21,2021-10-14 15:22:21.275,0.8154670415862978,0.07402093140225469,0.9764381664162504,1.37782163554708,0.8674937837835043,-0.3123656377770901,0.3409653238126747,0.8233654664378751,0.9268778945440536,0.4094063790138813,0.5286923277038537,0.8765185433942685,0.38412538722579703,0.2470258884103164,-0.0060429048007946025,0.6734299123552681,0.1561921828083963,0.1037937447676977,-0.43394683171372495,0.5827051605399121,804.6520146520148,0.0,800.6227106227108,807.0695970695973,691.8315018315019,-0.295593,0.027527,0.990051,20.299529999999997,32.247467,-36.658783,32.0,41.0,-9.0
742.0673076923076,53.55802290575007,,,,,,,31.967476308166013,32.06128092031217,0.0721740768668352,0.043078944425646463,738.4615384615386,45.61846153846162,0.06177500000000013,61.53846153846154,11.25,53.75,10.666666666666666,156.25,,,0.01819741848776741,0.00482342130568179,0.0018365245753937372,3.7727200952426867,0.7320735303126774,0.19404395550992645,-5.33427178826196,2021-10-14 15:22:22,2021-10-14 15:22:22.277,1.213488682107581,0.07402093140225469,0.9935754375635092,1.3372199633935968,1.1887279031083922,-0.3123656377770901,0.3994790776721947,0.733559370555332,1.749703172861397,0.4094063790138813,0.5334657704600956,0.5889064671449362,0.7445302079053141,0.2470258884103164,0.2116972732706297,0.7617916860362178,0.1930043609839421,0.1037937447676977,-0.01171847809926339,0.6956723416277093,790.952380952381,1382.857142857143,781.2820512820513,753.8827838827838,807.0695970695973,-0.522461,0.007384999999999998,0.885193,3.887939,-11.349791999999999,4.022522,18.0,28.000000000000004,-10.000000000000004
740.9937888198758,54.043432549317856,,,,,,,31.873223352273374,31.96889508082461,0.07293371869606181,0.04301415724824823,738.4615384615386,45.61846153846162,0.06177500000000013,61.53846153846154,11.180124223602483,53.41614906832297,10.733333333333333,132.8125,,,0.018097700701115837,0.004675682733630627,0.0017790209184301551,3.8706006656407856,0.7371050281181254,0.1904368576850064,-5.3653800876249065,2021-10-14 15:22:23,2021-10-14 15:22:23.276,0.9902250204948254,0.07402093140225469,0.8006981580612303,1.4465065205038392,0.7030439033414082,-0.3123656377770901,0.2236349323202343,0.7286976306226717,1.579619677290108,0.4094063790138813,0.1439357335334569,0.8164094930418311,0.4699734992942665,0.2470258884103164,0.2797412949598285,0.7176131183676109,-0.1050381838307899,0.1037937447676977,-0.0104933279900332,0.2254765168258815,785.3113553113553,879.5970695970697,796.9963369963368,760.3296703296703,881.6117216117218,-0.441895,0.018555000000000002,0.897705,3.409424,-9.989014,3.454285,24.0,67.0,-43.0
739.9904443382704,54.825030157650396,,,,,,,31.83839556184737,31.933953125349973,0.07408883530472772,0.04302541445696445,738.4615384615386,45.61846153846162,0.06177500000000013,61.53846153846154,11.180124223602483,53.41614906832297,10.733333333333333,132.8125,,,0.018144656768853,0.004570091323690939,0.001734991572891033,3.970305073509744,0.7421206531088108,0.18691779079152152,-5.388222090973512,2021-10-14 15:22:24,2021-10-14 15:22:24.274,1.501924241655339,0.07402093140225469,0.9696242555126052,1.4925219251631299,0.8367467508502187,-0.3123656377770901,0.38135640329600795,0.8914259921663511,0.755752255545782,0.4094063790138813,0.09873687541307406,0.755549521397518,0.4023620548098605,0.2470258884103164,0.1794799128148896,0.7302945430418393,-0.02312343579565001,0.1037937447676977,-0.3800538940918048,0.3123037245558315,788.5347985347986,1531.9413919413919,783.2967032967032,813.1135531135533,717.2161172161173,-0.4346310000000001,0.020691,0.9150389999999999,-7.2824100000000005,3.386993,19.38736,27.0,62.0,-35.0
739.5126612517917,55.105445547617464,,,,,,,31.83839556184737,31.935409803464967,0.0745158919312336,0.04305321224379542,730.7692307692308,45.61846153846162,0.062425263157894866,69.23076923076928,11.180124223602483,53.41614906832297,10.733333333333333,132.8125,,,0.01826987397873636,0.00453416063411942,0.0017179576589706445,4.029383926377932,0.7450403611670171,0.1849018050351792,-5.396115298737569,2021-10-14 15:22:25,2021-10-14 15:22:25.275,1.76251151917705,0.07402093140225469,1.2851310149929351,1.808444503752946,1.129742156569899,-0.3123656377770901,0.6488437030228158,1.1411906206221822,0.7709182939396195,0.4094063790138813,0.5755943034191381,1.243938028844289,0.3216423513007351,0.2470258884103164,0.1448538471062742,1.007726438161971,-0.06400520207460457,0.1037937447676977,-0.04773405563931552,0.5425809661354769,772.4175824175826,1337.728937728938,781.2820512820513,818.3516483516484,704.7252747252749,-0.492676,0.0401,0.895691,3.74588,-7.349701,3.8056949999999996,35.0,82.0,-47.0
738.4615384615386,55.7476027719455,,,,,,,31.739364542596988,31.83547348780953,0.07549154542034288,0.04298038948476676,730.7692307692308,45.61846153846162,0.062425263157894866,69.23076923076928,11.111111111111109,53.086419753086425,11.571428571428573,132.8125,,,0.01830064183762653,0.004496295228688704,0.0017023500051433214,4.07016018896155,0.7469867096233429,0.18352759472445407,-5.404501503802654,2021-10-14 15:22:26,2021-10-14 15:22:26.275,0.727637962700657,0.07402093140225469,1.0129107571907259,1.6328122329125283,0.2017606777056956,-0.3123656377770901,0.2811024979154109,0.9151132915665589,0.3741292139420873,0.4094063790138813,0.5849690738705468,1.1509647831528291,0.1935762849197298,0.2470258884103164,0.3198189935549512,0.8236865281024146,-0.330963765680532,0.1037937447676977,0.2714375657905896,0.3704826696825216,775.6410256410257,542.3443223443223,791.7582417582418,815.934065934066,903.7728937728937,-0.488708,0.028808999999999998,0.8814700000000001,3.080444,-4.09729,4.762726,49.0,94.0,-45.0
738.5093167701863,55.951273803587675,,,,,,,31.786082325222125,31.885298319019352,0.07576244812765026,0.043040868413463086,730.7692307692308,45.61846153846162,0.062425263157894866,69.23076923076928,11.180124223602483,52.79503105590062,11.5,132.8125,,,0.018677167050346926,0.004557084076877308,0.0017296680533489136,4.09849077508029,0.7481664603721938,0.1825468206299762,-5.3910723168207095,2021-10-14 15:22:27,2021-10-14 15:22:27.275,0.4527224526897792,0.07402093140225469,0.918959832261092,1.5568824387412992,-0.2371572653010062,-0.3123656377770901,0.1202501454110661,0.631718410154329,0.2331153714329447,0.4094063790138813,0.2133161036509369,0.8839578184549819,0.2156369399816511,0.2470258884103164,0.3233680111228573,0.5080250458744262,-0.3626731041611787,0.1037937447676977,0.1017403643978807,0.1666159290483912,772.0146520146519,801.8315018315019,786.5201465201468,775.6410256410257,739.7802197802197,-0.45391800000000004,0.021667,0.9097290000000001,4.740295,-3.588867,0.456085,47.0,74.0,-27.0
738.6039886039887,55.75071588947665,,,,,,,31.69301276241757,31.791574021497887,0.07548120068353446,0.042909344183639606,730.7692307692308,45.61846153846162,0.062425263157894866,69.23076923076928,11.111111111111109,52.46913580246913,10.8,132.8125,,,0.01907870665309188,0.0046481024468313205,0.0017737655955660677,4.104622665126092,0.7481677131169386,0.1822744193939092,-5.3712962186187765,2021-10-14 15:22:28,2021-10-14 15:22:28.275,0.1076487364638897,0.07402093140225469,0.6152674392971846,1.287837220856616,-0.1217060629775287,-0.3123656377770901,-0.02400490742268841,0.629947447826876,0.3888854614095634,0.4094063790138813,0.1528495209233749,0.8419171928715118,0.2451804535772313,0.2470258884103164,0.4969133536892414,0.5892530138377835,-0.18656115917304397,0.1037937447676977,0.1719516625891104,0.2235423973960617,790.1465201465203,1296.630036630037,789.3406593406594,782.0879120879123,758.7179487179487,-0.438538,0.023071,0.908386,4.007568,-5.473022,1.9215389999999999,37.0,56.00000000000001,-19.000000000000007
738.2226469182991,55.712320832033704,,,,,,,31.67535954597616,31.77301800962205,0.07546818167202543,0.04290759661492985,730.7692307692308,45.61846153846162,0.062425263157894866,69.23076923076928,11.180124223602483,52.79503105590062,10.733333333333333,132.8125,,,0.019469496325335917,0.0047494483037895776,0.0018288055451125078,4.099317453313732,0.7474540486261201,0.18233621990458596,-5.3497268142517385,2021-10-14 15:22:29,2021-10-14 15:22:29.274,0.1714032428217792,0.07402093140225469,0.08134467492800983,0.7132398736321129,0.1839371783684795,-0.3123656377770901,-0.1654017854679595,0.4720681665284809,0.4747191127908241,0.4094063790138813,0.2522225673619022,0.4809755623727234,0.3255568849635038,0.2470258884103164,0.5281182755232974,0.5834575848180934,-0.1191454751278402,0.1037937447676977,0.1436876728609613,0.149565144931168,775.2380952380953,370.2930402930403,791.3553113553114,779.6703296703297,920.6959706959708,-0.451904,0.030701,0.925842,3.327179,-7.895508,1.831818,26.0,36.0,-10.0
738.2704252269468,55.78216236385455,,,,,,,31.994822066285252,32.09469725286704,0.07555789918945613,0.043337537266848976,730.7692307692308,45.61846153846162,0.062425263157894866,69.23076923076928,11.801242236024844,52.79503105590062,10.733333333333333,132.8125,,,0.019689740717717463,0.004819197926916697,0.0018798424756872496,4.085688327458857,0.7461405901220209,0.1826229830374977,-5.335147769970515,2021-10-14 15:22:30,2021-10-14 15:22:30.274,1.161165704521993,0.07402093140225469,0.3065097109614472,1.260421521276597,0.9769711631749204,-0.3123656377770901,0.0966869080804471,1.115721031692537,1.2361884704019719,0.4094063790138813,0.4914492281278632,1.235156880001201,0.2965160761369385,0.2470258884103164,0.4591647298841917,0.4818862821360672,-0.1281846086936472,0.1037937447676977,0.161060229434733,-0.09821696433044448,794.5787545787546,39.89010989010989,773.6263736263736,802.6373626373628,776.0439560439563,-0.470276,-0.014099,0.904236,8.418884,-1.6822810000000001,-10.452575999999999,25.0,50.0,-25.0
738.4137601528906,55.951273803587675,,,,,,,31.716197120135842,31.812121746634574,0.0757722523914002,0.042951795905819684,730.7692307692308,45.61846153846162,0.062425263157894866,69.23076923076928,11.180124223602483,52.17391304347826,10.733333333333333,132.8125,,,0.02004052848726917,0.004934465338999257,0.001965954076693399,4.061337371017694,0.7438687220454467,0.18315856430785687,-5.311510952594278,2021-10-14 15:22:31,2021-10-14 15:22:31.286,1.75389914748653,0.07402093140225469,0.883590810858985,1.5931313574600483,1.342924226070855,-0.3123656377770901,0.4682955963051946,1.341402050410428,1.2382243518786091,0.4094063790138813,0.6609367410391154,1.238422654878163,0.2756502627630205,0.2470258884103164,0.4284195319834547,0.5500441775393513,-0.1112545258774411,0.1037937447676977,0.1928572984963541,0.1621426802331624,742.6007326007326,904.981684981685,782.8937728937732,765.9706959706958,853.4065934065933,-0.375183,0.001831,0.9475100000000001,4.3141169999999995,-4.830017,4.403839,21.0,47.0,-26.0
738.6514719848053,55.81974987344232,,,,,,,31.762515066858498,31.859851964880185,0.07556980794128923,0.043000679307536635,730.7692307692308,45.61846153846162,0.062425263157894866,69.23076923076928,11.728395061728394,51.851851851851855,11.571428571428573,156.25,,,0.020414426464509864,0.005053420272808517,0.002054238862208135,4.039724654281373,0.7417470740248359,0.183613275038119,-5.287689983202382,2021-10-14 15:22:32,2021-10-14 15:22:32.274,1.352871754911129,0.07402093140225469,0.7583767671022843,1.372715881115917,0.9696266813043214,-0.3123656377770901,0.33205838941607696,1.003712187865339,0.8127685962343794,0.4094063790138813,0.5867128196258881,0.8455000831385336,0.2562453274868651,0.2470258884103164,0.2551634539956971,0.4819325113136722,-0.1638496596723192,0.1037937447676977,-0.00030840506781125584,0.1560556027065399,772.4175824175826,616.8864468864467,794.981684981685,801.025641025641,956.1538461538464,-0.379944,-0.019958,0.965942,5.17395,-6.8487550000000015,-0.157013,21.0,48.0,-27.0
738.9393215480172,55.8930286495787,,,,,,,31.87902428477245,31.978970193369413,0.07563953767203427,0.04314159952672232,730.7692307692308,45.61846153846162,0.062425263157894866,69.23076923076928,11.801242236024844,52.17391304347826,11.5,156.25,,,0.020872227709866374,0.0051907182341135285,0.0021584360162315813,4.0210673684218845,0.7395891434123789,0.18392856315228545,-5.260883203303262,2021-10-14 15:22:33,2021-10-14 15:22:33.278,0.7764572785030294,0.07402093140225469,0.3072610001412713,0.9530940274491576,0.6304824920315758,-0.3123656377770901,0.1123204909469875,0.4113593055950924,0.5201870151345626,0.4094063790138813,0.5043216156959284,0.4344004123546841,0.3340781942947284,0.2470258884103164,0.1201731236339151,0.5222964002634877,-0.3708835647231551,0.1037937447676977,-0.1816137754287676,0.2679903861457682,786.9230769230769,880.8058608058608,795.7875457875458,798.2051282051282,720.0366300366301,-0.353577,0.010254000000000001,0.9336549999999999,4.650574,-0.17944300000000002,-0.381317,26.0,48.0,-22.0
738.6048733874821,56.05676572455914,,,,,,,32.000600955895514,32.10016833005332,0.07589547232130298,0.043325737629011776,730.7692307692308,45.61846153846162,0.062425263157894866,69.23076923076928,11.801242236024844,52.79503105590062,12.384615384615385,156.25,,,0.021277619360893736,0.00530954889223379,0.0022770661569063828,4.0074250737225965,0.7371620898940981,0.1839490636338535,-5.238248401718701,2021-10-14 15:22:34,2021-10-14 15:22:34.274,0.08885290626291985,0.07402093140225469,0.3091145682113572,1.4389593886937202,0.06278524818115817,-0.3123656377770901,0.1040257144756392,0.9177468368719334,0.5694658046337093,0.4094063790138813,0.4690467684360101,0.5694113699202135,0.26900827685550305,0.2470258884103164,0.1630488698811272,0.432979640506574,-0.4459809834615751,0.1037937447676977,-0.2046433654703717,0.2043537969465201,783.6996336996338,1184.615384615385,784.1025641025641,752.2710622710623,630.1831501831502,-0.362183,0.001343,0.953247,5.17395,-5.345917,0.142059,22.0,32.0,-10.0
738.5093167701863,56.096499263261954,,,,,,,31.727855344062053,31.825133467766506,0.07595909488128827,0.04296202447766182,730.7692307692308,45.61846153846162,0.062425263157894866,69.23076923076928,11.180124223602483,53.41614906832297,12.384615384615385,156.25,,,0.02175794628362561,0.005428489360645742,0.0023886117999695933,4.008103330064814,0.7356859299937477,0.18354964166601245,-5.216094386201124,2021-10-14 15:22:35,2021-10-14 15:22:35.274,0.3350130201111998,0.07402093140225469,0.1215852389339658,1.755064991991509,0.1917789313292466,-0.3123656377770901,0.049952534348022486,1.037126092827138,0.652785619743227,0.4094063790138813,0.3898642413047795,0.6590189998941067,0.3159837984460513,0.2470258884103164,0.3206375532459235,0.4230217787932222,-0.2999540080362051,0.1037937447676977,-0.05439051079562112,0.2306797960008725,799.8168498168499,1409.8534798534802,782.4908424908424,785.7142857142858,882.4175824175826,-0.369568,-0.010376,0.945068,2.953339,-2.1009830000000003,0.239258,25.0,20.0,5.0
738.1748686096512,55.9340283872489,,,,,,,31.733682849914132,31.831527729087053,0.07577341191877797,0.04298938395137235,730.7692307692308,45.61846153846162,0.062425263157894866,69.23076923076928,11.180124223602483,53.41614906832297,11.5,156.25,,,0.022276138439573403,0.005529410546380472,0.002512362974744562,4.028664222473997,0.7347517358204052,0.18238098169650768,-5.19767406110382,2021-10-14 15:22:36,2021-10-14 15:22:36.274,0.4524864060299836,0.07402093140225469,0.8470531038753458,1.63267584696926,0.1389806957008609,-0.3123656377770901,0.7673076706895192,1.0687100550458042,0.21184862511486802,0.4094063790138813,0.4059381315343267,1.181283819469008,0.2314173655782809,0.2470258884103164,0.2564454523230724,0.5579613057262696,-0.1738395573618494,0.1037937447676977,-0.0951782348359009,0.20445492985903896,807.0695970695973,1640.3296703296699,765.9706959706958,793.7728937728937,655.9706959706957,-0.401855,0.016113,0.9277340000000001,12.254486,-9.876862,-18.183594,21.0,8.0,13.0
738.0315336837076,55.82390189766924,,,,,,,31.681196708017048,31.78052058405668,0.07563891155034745,0.04292661663098316,730.7692307692308,45.61846153846162,0.062425263157894866,69.23076923076928,11.180124223602483,53.41614906832297,11.5,156.25,,,0.022756514586698168,0.005595791756851353,0.0026076923135099303,4.066719344735378,0.7350295727971312,0.1807426356452832,-5.185740435728474,2021-10-14 15:22:37,2021-10-14 15:22:37.274,0.9935561982445724,0.07402093140225469,1.087293925471921,1.6104665937025282,0.3217321116580465,-0.3123656377770901,0.9130609188186845,1.161744771974835,0.2237070989197086,0.4094063790138813,0.5439466299182858,1.179911115556273,0.5134185942737083,0.2470258884103164,0.3466703246566586,0.5493688907207859,-0.2273820314756202,0.1037937447676977,-0.1156293363850634,0.1630390898540347,784.9084249084249,1613.736263736264,800.2197802197803,785.7142857142858,597.948717948718,-0.444763,0.0051270000000000005,0.9142459999999999,5.024414,-1.166382,3.843079,23.0,0.0,23.0
739.2687559354226,56.919383828567895,,,,,,,32.021805206352745,32.118141763197464,0.076994169402636,0.04331551272694385,730.7692307692308,45.61846153846162,0.062425263157894866,69.23076923076928,11.728395061728394,53.086419753086425,11.571428571428573,156.25,,,0.023595981859896774,0.005719171017128643,0.002730901587777248,4.125769589548545,0.7363147274748936,0.17846724386648635,-5.163931411168786,2021-10-14 15:22:38,2021-10-14 15:22:38.275,1.021837068783186,0.07402093140225469,1.260723385817581,1.6283822261517382,0.5460966776329819,-0.3123656377770901,0.7477577923386691,1.204648051397603,0.5587234068245779,0.4094063790138813,0.6361125007922902,1.07677032229478,0.594371206471932,0.2470258884103164,0.4505898320933344,0.7840477776822368,-0.027343849338473808,0.1037937447676977,0.3108279483447011,0.2232471901499775,786.1172161172162,438.7912087912088,780.0732600732601,783.2967032967032,859.047619047619,-0.490295,0.076477,0.889526,5.7720949999999975,-4.695435,11.304932,22.0,10.0,12.0
739.1304347826087,57.16031193592543,,,,,,,31.820967372112378,31.918544685585903,0.07733453967801672,0.043051897032857916,730.7692307692308,45.61846153846162,0.062425263157894866,69.23076923076928,11.801242236024844,52.79503105590062,11.5,156.25,,,0.02461043961500299,0.005809110721591582,0.002854292225606203,4.236524451759841,0.7396332289845162,0.17458490737077526,-5.148327779800215,2021-10-14 15:22:39,2021-10-14 15:22:39.275,0.6303865250568232,0.07402093140225469,0.7056743300009667,1.330705867179769,0.5965107941751293,-0.3123656377770901,0.05952860276322064,0.8772359991789627,0.5873019737200124,0.4094063790138813,0.5951676799876681,0.6958118492600665,0.3048165480912713,0.2470258884103164,0.31570203387698603,0.7815943240387938,-0.03649089250369293,0.1037937447676977,0.4255650547102854,0.2508467459269607,773.6263736263736,1171.721611721612,783.2967032967032,802.2344322344322,606.8131868131867,-0.462158,0.075073,0.911499,8.501128999999999,-1.300964,-2.990723,21.0,0.0,21.0
739.7037744863832,57.92198270698776,,,,,,,31.861618318809395,31.95346709505693,0.07830429518519919,0.043073483491324165,730.7692307692308,45.61846153846162,0.062425263157894866,69.23076923076928,11.801242236024844,52.79503105590062,11.5,156.25,,,0.02561863820603195,0.005881598685167129,0.002949800374147843,4.355727001680664,0.7436461681799567,0.17072836931539093,-5.135926668793188,2021-10-14 15:22:40,2021-10-14 15:22:40.275,0.6793983397555023,0.07402093140225469,0.2768191478071967,1.402962067607857,0.3640523660215318,-0.3123656377770901,0.1927165048194195,0.8178328872260635,0.4021888939872773,0.4094063790138813,0.2242495305743159,0.6928423781347653,0.1908652051822929,0.2470258884103164,0.3455129023139826,0.8133380828317464,-0.1564015813985659,0.1037937447676977,0.1735967893675027,0.208130085472495,771.6117216117218,1626.630036630037,789.3406593406594,801.8315018315019,697.4725274725273,-0.477783,0.039612,0.8775629999999999,3.9701839999999997,-2.026215,1.046753,27.0,25.0,2.0
739.7993311036789,57.945375837168655,,,,,,,32.82777363595482,32.930702560848204,0.07832580187754715,0.0443738893180402,730.7692307692308,45.61846153846162,0.062425263157894866,69.23076923076928,12.422360248447205,53.41614906832297,11.5,156.25,,,0.026803928290315655,0.0059510766864311814,0.0030396766518569645,4.504046864566583,0.7488243244744056,0.16625589097782706,-5.124183120092386,2021-10-14 15:22:41,2021-10-14 15:22:41.275,1.124446292269679,0.07402093140225469,0.7252167275857916,0.7140282906117352,0.8147446723234814,-0.3123656377770901,0.1932838805557035,0.523798764695651,0.8923940323398014,0.4094063790138813,0.3323338674451741,0.6808180308593113,0.134750413932371,0.2470258884103164,0.4189618531772871,0.6905613860169562,-0.2067251558069092,0.1037937447676977,-0.07764215410012774,0.07478218845851067,774.4322344322345,894.5054945054945,794.5787545787546,799.8168498168499,871.5384615384613,-0.454712,0.028014999999999998,0.8983760000000001,4.605713,-5.301056,0.9196469999999999,31.0,45.0,-14.0
739.6082178690874,57.89842143127819,,,,,,,32.78268051901543,32.885609125559434,0.07828255559151502,0.04432438651569722,730.7692307692308,45.61846153846162,0.062425263157894866,69.23076923076928,12.422360248447205,52.79503105590062,10.733333333333333,156.25,,,0.028554012503434256,0.006039488188155553,0.0031417951214467985,4.727886140986824,0.7566924251742463,0.1600487834540589,-5.10943600768614,2021-10-14 15:22:42,2021-10-14 15:22:42.275,0.7426246619585919,0.07402093140225469,0.8013889205006507,0.9926722474931666,0.2985951955137948,-0.3123656377770901,0.09329021718533118,0.3918267012709031,0.6205733958826362,0.4094063790138813,0.4582767081746488,0.5772589314270365,0.189744443180651,0.2470258884103164,0.4467724002976417,0.4154607565114685,-0.2625258838100986,0.1037937447676977,-0.1692431504520894,0.008846369307083551,755.0915750915751,0.0,795.3846153846154,799.8168498168499,640.6593406593407,-0.408752,0.050903,0.926514,5.136566,-5.3160099999999995,-4.3365480000000005,33.0,54.0,-21.0
739.3693263258481,57.950568623931254,,,,,,,32.83340592108436,32.93363361580662,0.07837837811301332,0.0444073141149141,730.7692307692308,45.61846153846162,0.062425263157894866,69.23076923076928,12.422360248447205,52.79503105590062,10.733333333333333,117.1875,,,0.03020374917719933,0.006123953104902735,0.003217312958726553,4.932067352543688,0.7637814524348744,0.15486030458220687,-5.0955474588086505,2021-10-14 15:22:43,2021-10-14 15:22:43.275,0.7532964045231689,0.07402093140225469,0.6879917277853886,1.121276056806932,0.595078458859746,-0.3123656377770901,0.4026586420589586,0.8023416997359687,0.4683556696899943,0.4094063790138813,0.5261649650078537,0.6503341614982274,0.4230399000975957,0.2470258884103164,0.3089242427161727,0.466013830958982,-0.2961805099268622,0.1037937447676977,-0.06402377230422959,0.1108744578893482,778.0586080586081,1277.692307692308,785.7142857142858,776.4468864468864,695.8608058608058,-0.433655,0.08935499999999999,0.8999020000000001,6.95343,-4.276733,1.480408,35.0,73.0,-38.0
738.9393215480172,57.92701897527845,,,,,,,32.78268051901543,32.88433600008066,0.07839211865722087,0.044364509457066666,730.7692307692308,45.61846153846162,0.062425263157894866,69.23076923076928,12.422360248447205,52.17391304347826,10.733333333333333,117.1875,,,0.0321203700275904,0.00623754374233512,0.0032917235514927155,5.149522208491262,0.7712040750730035,0.1497622582928826,-5.077168805129872,2021-10-14 15:22:44,2021-10-14 15:22:44.275,0.6974913298363786,0.07402093140225469,0.4171643933779006,1.241042323944363,0.4218282330853464,-0.3123656377770901,0.2468610912228081,0.7728559835751982,0.5056511133829008,0.4094063790138813,0.3849704262214743,0.8101244192250481,0.4010492939417181,0.2470258884103164,0.2024948615720544,0.4462814115104409,-0.2324523243304152,0.1037937447676977,-0.04099067315113885,0.18876051260927,792.5641025641023,42.71062271062272,782.0879120879123,795.3846153846154,697.0695970695973,-0.466492,0.036621,0.882446,3.20755,-2.9234310000000003,-1.061707,38.0,63.0,-25.0
739.4648829431437,58.216404302127714,,,,,,,33.169592905116026,33.27286251364443,0.07872774711142554,0.04485621111998956,730.7692307692308,45.61846153846162,0.062425263157894866,69.23076923076928,13.043478260869565,52.79503105590062,11.5,117.1875,,,0.03477473729985971,0.00641287690244344,0.003372688116637183,5.422642260076724,0.7803972480024833,0.14391457348164466,-5.049447294003,2021-10-14 15:22:45,2021-10-14 15:22:45.275,0.6318002632880952,0.07402093140225469,0.2873871402220038,0.906909363201228,0.1748192463628107,-0.3123656377770901,0.178606800129017,0.3874431125141446,0.6755069952319528,0.4094063790138813,0.3401670873077326,0.7699775298095289,0.3791844265147215,0.2470258884103164,0.2404806471761236,0.5062276394416776,0.0105559373340259,0.1037937447676977,-0.2023654667689843,0.2626987731342566,729.3040293040292,994.8351648351648,794.1758241758242,797.8021978021977,724.4688644688645,-0.445984,0.033202999999999996,0.8903200000000001,3.342133,-3.252411,-0.91217,85.0,100.0,-15.0
739.9426660296225,58.775193062123364,,,,,,,33.108214179472824,33.21160460832097,0.07943209083684652,0.04474429668601836,730.7692307692308,45.61846153846162,0.062425263157894866,69.23076923076928,13.043478260869565,52.79503105590062,11.5,117.1875,,,0.03691998486207282,0.006558835249588328,0.003412725858453608,5.6290459292128325,0.7873484249293662,0.1398724463844389,-5.026942245207026,2021-10-14 15:22:46,2021-10-14 15:22:46.275,1.795098690302864,0.07402093140225469,0.1683182472632072,0.8621772815250558,0.5406278016225539,-0.3123656377770901,0.04539698919722313,0.2975442432126146,0.6660618331077875,0.4094063790138813,0.4084795311310139,0.5058397569867248,0.4142863931900741,0.2470258884103164,0.2126650629065474,0.4657787828306956,-0.02073870466716454,0.1037937447676977,-0.07413437416899618,0.2420723175162703,754.2857142857142,1385.677655677656,788.5347985347986,819.1575091575091,744.6153846153846,-0.46643100000000004,0.034058,0.9003909999999999,4.07486,-6.145935,0.358887,85.0,68.0,17.0
740.3248924988055,59.46492425873663,,,,,,,32.923391443501245,33.02672663088447,0.08032274054439223,0.04447154455711399,730.7692307692308,45.61846153846162,0.062425263157894866,69.23076923076928,12.422360248447205,52.79503105590062,11.5,117.1875,,,0.03893572796388853,0.006698842419277681,0.0034230259119439354,5.812306892283468,0.7936737815213641,0.1365505635249682,-5.00582054075437,2021-10-14 15:22:47,2021-10-14 15:22:47.276,1.605495069190531,0.07402093140225469,0.1268171489049524,1.333749137426212,0.5687981827475171,-0.3123656377770901,0.1118790572480951,0.4662427377744164,0.42087051516852503,0.4094063790138813,0.2637676373535387,0.6984637559637205,0.3916522896397949,0.2470258884103164,0.1010391782458537,0.7707267934311111,-0.07634628493034923,0.1037937447676977,-0.1611238321023774,0.5114418406389394,765.9706959706958,767.9853479853481,794.981684981685,792.9670329670329,691.025641025641,-0.43267799999999995,0.037781,0.872192,-0.24673499999999998,-13.308716,0.568237,100.0,57.99999999999999,42.00000000000001
738.8942307692308,57.73339530288654,,,,,,,33.53554089980318,33.64023836672545,0.07813485732969222,0.04538611820651352,730.7692307692308,45.61846153846162,0.062425263157894866,69.23076923076928,12.5,53.125,11.428571428571427,117.1875,,,0.04248643087645073,0.007092940040560133,0.0035066781071607304,5.9899605288494095,0.8003313800412128,0.13361212919293572,-4.948655350123713,2021-10-14 15:22:48,2021-10-14 15:22:48.282,1.2119687498860359,0.07402093140225469,0.4645691342911739,1.086385701500501,0.586744934914546,-0.3123656377770901,0.03383402846412464,0.4863368976028675,0.4969750767182023,0.4094063790138813,0.06186501586560411,0.869895539463978,0.3329417331728767,0.2470258884103164,0.1412637953384913,0.841488065911163,0.1306970152429025,0.1037937447676977,-0.1272345045845176,0.5708450399664319,798.6080586080586,1138.681318681319,796.5934065934067,797.3992673992674,685.7875457875458,-0.4381100000000001,0.054564999999999995,0.916565,-2.3626709999999997,-1.4953610000000002,5.016937,85.0,52.0,33.0
738.4615384615386,57.29828354852425,,,,,,,33.38539345727593,33.49056031518221,0.0775914256386266,0.045209386973394494,730.7692307692308,45.61846153846162,0.062425263157894866,69.23076923076928,12.5,53.125,11.428571428571427,117.1875,,,0.045377291620989066,0.0074586441234311095,0.0035645068585105875,6.083852623888791,0.8045555943674652,0.13224442538405778,-4.898381634176798,2021-10-14 15:22:49,2021-10-14 15:22:49.282,1.098449133460258,0.07402093140225469,0.3586087326910326,0.5183486838017117,0.4106626199297076,-0.3123656377770901,0.09773147439810442,0.2436502720328214,0.4377565845239499,0.4094063790138813,0.3058495677143336,0.8026417126216054,0.2405582224546773,0.2470258884103164,0.2392045177143912,0.8289843060063704,0.1261353190735245,0.1037937447676977,-0.03249826767788645,0.4761932156277873,784.5054945054945,3.223443223443224,790.5494505494507,780.4761904761905,909.81684981685,-0.409912,0.0047,0.91217,5.17395,-16.351776,-0.792542,54.0,34.0,20.0
737.8404204491161,57.15761942249668,,,,,,,33.552043827022125,33.64854129175925,0.07746609949574924,0.045473306825071114,730.7692307692308,45.61846153846162,0.062425263157894866,69.23076923076928,13.043478260869565,53.41614906832297,10.733333333333333,117.1875,,,0.04668779371508144,0.007616565259246788,0.0034951240278295014,6.129770063796244,0.8077545211492381,0.13177566413461608,-4.877429764283113,2021-10-14 15:22:50,2021-10-14 15:22:50.274,0.934997144588529,0.07402093140225469,0.6804442600935136,0.6212793472026701,0.5846627130255235,-0.3123656377770901,0.3047156670897055,0.4701431949628159,0.4634429978405945,0.4094063790138813,0.3752075560379211,0.6934490011823554,0.2917201148549556,0.2470258884103164,0.2844454050546282,0.6792552619909056,-0.04665959016564723,0.1037937447676977,-0.05688495969120246,0.5466832630224244,805.8608058608058,56.410256410256395,796.5934065934067,788.5347985347986,702.3076923076924,-0.42456099999999997,0.012512,0.917358,4.179535,-7.671203999999999,3.499146,61.0,48.0,13.0
736.6571699905032,57.131648786034525,,,,,,,33.447682629182594,33.548620561260826,0.07755527416745436,0.04540467939735628,730.7692307692308,45.61846153846162,0.062425263157894866,61.53846153846154,12.962962962962964,53.70370370370371,10.8,117.1875,,,0.04385513063442528,0.007169056783421066,0.00310440826926502,6.117280412095949,0.8102026309333513,0.13244490629059674,-4.937981183453544,2021-10-14 15:22:51,2021-10-14 15:22:51.275,0.8431511039574755,0.07402093140225469,0.7527339116054634,0.8144942449009828,0.7744586583591876,-0.3123656377770901,0.3535115240272743,0.6445631227470404,0.8004136889766068,0.4094063790138813,0.3648130246691569,0.849661536678721,0.3513777590732131,0.2470258884103164,0.2821182862353624,0.6786070179824902,0.01274013447625628,0.1037937447676977,-0.06746161139825774,0.5741608231494251,778.0586080586081,645.8974358974359,789.3406593406594,803.4432234432236,727.2893772893773,-0.4148560000000001,0.064148,0.905518,5.233765,-5.555267,0.508423,55.00000000000001,42.0,13.000000000000007
736.3247863247864,57.09758764006686,,,,,,,33.47514153096608,33.578733322516925,0.07754402500159979,0.045462467314254566,730.7692307692308,45.61846153846162,0.062425263157894866,61.53846153846154,12.962962962962964,54.320987654320994,10.8,117.1875,,,0.04158575029177133,0.006862003042318099,0.002825767110440346,6.060293187763286,0.8110570511100529,0.13383132234389392,-4.981755891188633,2021-10-14 15:22:52,2021-10-14 15:22:52.275,1.2665927337331728,0.07402093140225469,0.5305560391836678,1.3847728831175692,1.068170109820099,-0.3123656377770901,0.2020609601474793,1.14839642472842,1.059293596788905,0.4094063790138813,0.4806765535511279,0.9664858380814488,0.3243637476753269,0.2470258884103164,0.3896160544848987,0.7643704003974174,0.05714347996217513,0.1037937447676977,0.01443150272783326,0.605784340157483,801.025641025641,1263.9926739926739,792.9670329670329,807.8754578754579,763.1501831501831,-0.430725,0.062927,0.914185,4.052429,-4.867401,0.16449,49.0,44.0,5.0
736.0726230291448,57.30147117010112,,,,,,,33.485844399506014,33.5909807473709,0.07784757831949997,0.04549258232387777,730.7692307692308,45.61846153846162,0.062425263157894866,61.53846153846154,13.043478260869565,53.41614906832297,10.733333333333333,125.0,,,0.039186120224343965,0.006566339395543132,0.0025669454257612853,5.967726896806664,0.8109810165775841,0.1358944587446756,-5.025798771390433,2021-10-14 15:22:53,2021-10-14 15:22:53.274,0.613513453211011,0.07402093140225469,0.6010898572162281,1.0452238209404359,0.3801333517121769,-0.3123656377770901,0.274880362712811,0.6770769271293761,0.4858707921685557,0.4094063790138813,0.7070641147980493,0.8599212541639027,0.4573309266268654,0.2470258884103164,0.3730041149083763,0.7548773779449732,0.1196619552135023,0.1037937447676977,-0.1282330787857251,0.5018125595175458,786.5201465201468,1604.4688644688642,796.1904761904763,792.9670329670329,684.981684981685,-0.415588,0.052307000000000006,0.9185180000000001,3.454285,-8.045044,-2.938385,55.00000000000001,46.0,9.000000000000009
736.56220322887,57.17356675885574,,,,,,,33.51902898544811,33.622758831279235,0.07762218385388743,0.04550739752665918,730.7692307692308,45.61846153846162,0.062425263157894866,61.53846153846154,12.962962962962964,53.70370370370371,10.8,125.0,,,0.03609284419831568,0.0062049073951540145,0.002273377726482245,5.816822379412772,0.8097807874515529,0.13921360059361196,-5.082414784666747,2021-10-14 15:22:54,2021-10-14 15:22:54.275,0.5087834892725698,0.07402093140225469,0.5723496494414827,1.08583535174903,0.2556911047589158,-0.3123656377770901,0.08999546375207983,0.4011506634823021,0.4674250007596776,0.4094063790138813,0.6762039536196282,0.6815635056925041,0.3064218138981523,0.2470258884103164,0.2456577520403116,0.6574273750174747,-0.07444132571883648,0.1037937447676977,-0.1502324087195054,0.4699781685477945,792.1611721611722,541.1355311355312,784.1025641025641,771.2087912087912,792.9670329670329,-0.42852799999999996,0.044006,0.9125979999999999,3.656158,-5.330963,2.527161,57.99999999999999,48.0,9.999999999999991
736.7521367521367,57.2309952782347,,,,,,,32.97181045172828,33.073436743345816,0.07768012120131625,0.044752921378795926,730.7692307692308,45.61846153846162,0.062425263157894866,67.30769230769238,12.345679012345679,53.086419753086425,11.571428571428573,125.0,,,0.03331237049824928,0.005867055844255821,0.002046108781547178,5.677868318036205,0.8080518639238666,0.1423160627654969,-5.138402330717288,2021-10-14 15:22:55,2021-10-14 15:22:55.275,0.0227914016353321,0.07402093140225469,0.3700355021002451,1.188900367134541,-0.095231083095161,-0.3123656377770901,-0.0995308413498895,0.7307060406105461,0.09964089331969213,0.4094063790138813,0.3278072773577181,0.5663495882495894,0.203071019311804,0.2470258884103164,0.1356832426618103,0.5991463157285378,-0.2043101194703166,0.1037937447676977,-0.137895266680911,0.44246784364462505,787.3260073260074,1288.571428571429,783.6996336996338,794.1758241758242,719.2307692307692,-0.409302,0.038513,0.9131469999999999,4.187012,-4.844971,0.979462,53.0,46.0,7.0
735.7859531772575,56.46293273774445,,,,,,,32.709271616838876,32.80172503272122,0.07673825858447998,0.04445487369743102,730.7692307692308,45.61846153846162,0.062425263157894866,61.53846153846154,11.801242236024844,52.17391304347826,11.5,125.0,,,0.03063325827074357,0.005538456040323355,0.0018450313920201,5.531010456292272,0.8057832858706813,0.14568464338265605,-5.1960395101475045,2021-10-14 15:22:56,2021-10-14 15:22:56.274,0.2566254279910322,0.07402093140225469,0.4872054341237718,1.276742852875687,0.02003539087000254,-0.3123656377770901,0.2787346025903306,0.6256024945043199,0.3115424106508091,0.4094063790138813,0.4741602525704077,0.6557241120342157,0.209841292150882,0.2470258884103164,0.3935784388876701,0.4639141774933017,-0.1957516911280534,0.1037937447676977,-0.1601239647386621,0.3555808392313676,794.5787545787546,638.2417582417582,787.3260073260074,806.2637362637363,669.2673992673992,-0.408875,0.040405,0.9259639999999999,3.8505550000000004,-7.043152,1.308441,57.99999999999999,41.0,16.999999999999993
735.3081700907788,55.37975439197847,,,,,,,32.84466759382886,32.94690838167121,0.075315026603256,0.04466789426503171,730.7692307692308,45.61846153846162,0.062425263157894866,61.53846153846154,12.422360248447205,52.17391304347826,11.5,125.0,,,0.02781423579739964,0.005201240277704527,0.0016478427282228265,5.347616013170409,0.8024112161680844,0.15005026804315436,-5.258858166891744,2021-10-14 15:22:57,2021-10-14 15:22:57.278,0.3705365018640613,0.07402093140225469,0.8032819896272178,1.095337821203068,-0.3329077499745746,-0.3123656377770901,0.7594963105212961,0.5039830896636649,0.1967376360934425,0.4094063790138813,0.5896073818362121,0.5493574589558033,0.2095126650369753,0.2470258884103164,0.3430976624566101,0.212092789783732,-0.06675711831140765,0.1037937447676977,-0.05573080602802385,0.2878501073765788,797.8021978021977,1628.644688644689,799.4139194139194,822.7838827838829,726.0805860805863,-0.394714,0.049011,0.9349370000000001,4.1346739999999995,-4.9047849999999995,0.800018,48.0,46.0,2.0
735.0902184235517,54.6216853227479,,,,,,,32.35861570417857,32.459260420539515,0.074306097338484,0.04401992421226025,730.7692307692308,45.61846153846162,0.062425263157894866,61.53846153846154,12.345679012345679,51.851851851851855,11.571428571428573,125.0,,,0.025979219978945468,0.004983671094554594,0.0015272947797949886,5.212868081790481,0.7996020735692633,0.15339004575282122,-5.3015884919388965,2021-10-14 15:22:58,2021-10-14 15:22:58.275,0.6746729036984372,0.07402093140225469,0.7044084791491154,0.9089801066514034,0.3649776726241216,-0.3123656377770901,0.6304699920303556,0.5016002806089014,0.2191577660488449,0.4094063790138813,0.5988643786613237,0.6258483438901981,0.26360200749019896,0.2470258884103164,0.1057739370303725,0.4313562093397536,-0.2418865259327847,0.1037937447676977,-0.076921242705025,0.2474806855754073,794.1758241758242,1082.673992673993,784.5054945054945,774.8351648351648,812.7106227106227,-0.447754,0.046143,0.874084,0.336456,5.091705,14.617157,41.0,56.99999999999999,-15.999999999999993
735.042735042735,54.58842695867669,,,,,,,32.35861570417857,32.459260420539515,0.07426565062982758,0.044022767876615035,730.7692307692308,45.61846153846162,0.062425263157894866,61.53846153846154,12.345679012345679,51.851851851851855,11.571428571428573,125.0,,,0.02436913971833113,0.004784326009357638,0.0014277542577534096,5.093536617418558,0.7968661724395484,0.15644653848457188,-5.342410118886887,2021-10-14 15:22:59,2021-10-14 15:22:59.275,1.455862785235647,0.07402093140225469,0.852897044023325,1.685738966111281,1.156574133666732,-0.3123656377770901,0.3085660814650025,0.8945020888215747,1.104472229004187,0.4094063790138813,0.5691019166882788,1.1214909044444799,0.3940505692325677,0.2470258884103164,0.3190165138781884,0.5968180021321896,-0.1009373662431426,0.1037937447676977,-0.06050271741693353,0.2414939764433603,798.6080586080586,1263.9926739926739,794.5787545787546,813.9194139194141,745.0183150183151,-0.441345,0.096741,0.88623,4.545898,-5.443115,6.8038940000000006,46.0,57.99999999999999,-11.999999999999993
734.5437171524127,54.488734602092286,,,,,,,32.179231789772125,32.279689294700084,0.07418038345399973,0.04380846372836806,730.7692307692308,45.61846153846162,0.062425263157894866,61.53846153846154,11.801242236024844,51.5527950310559,11.5,156.25,,,0.022836194137342163,0.0045920220213991865,0.0013378339017696163,4.973014944380424,0.7938592225663577,0.1596333876823414,-5.3834348243755015,2021-10-14 15:23:00,2021-10-14 15:23:00.275,1.0145323616857291,0.07402093140225469,0.3909437655614962,1.326880738385221,0.7000108131485601,-0.3123656377770901,0.09792406815797586,0.4265973815605605,0.931735118132398,0.4094063790138813,0.1912770695032257,0.8153310556045544,0.2851695651626519,0.2470258884103164,0.4434012756629777,0.492084980203062,-0.1361407183860684,0.1037937447676977,-0.08698704824917051,0.07407907213623241,785.3113553113553,968.2417582417582,782.4908424908424,786.5201465201468,749.4505494505495,-0.375732,0.099487,0.944031,3.6187739999999997,-6.086121,4.157104,38.0,49.0,-11.0
735.0427350427351,54.473851456309795,,,,,,,32.02754336699488,32.12715180196325,0.07410977465567728,0.04357235551091163,730.7692307692308,45.61846153846162,0.062425263157894866,61.53846153846154,11.728395061728394,51.23456790123457,11.571428571428573,164.0625,,,0.02164489615121691,0.004413236506335082,0.0012716038321039856,4.904540266569953,0.7919906640669323,0.16148112178123075,-5.423146957034234,2021-10-14 15:23:01,2021-10-14 15:23:01.274,0.4769859124022254,0.07402093140225469,0.01005189914325104,1.1473517695622353,0.2283956558376774,-0.3123656377770901,-0.1879737164823595,0.4772115152594049,0.5352604545884652,0.4094063790138813,0.1047110583010427,0.294856143102344,0.2851807349586565,0.2470258884103164,0.2241094755824065,0.5875096868243942,-0.06586923898994149,0.1037937447676977,-0.07694767084311137,0.13996376013587,780.8791208791209,1627.032967032967,795.7875457875458,759.1208791208792,717.2161172161173,-0.364563,0.11108399999999999,0.9437260000000001,3.5365300000000004,-7.499237,-0.91217,29.0,53.0,-24.000000000000004
735.3276353276352,54.733360835809535,,,,,,,32.07914062416534,32.177946879087465,0.0744339777348669,0.043625642615583236,730.7692307692308,45.61846153846162,0.062425263157894866,61.53846153846154,11.728395061728394,51.851851851851855,11.571428571428573,156.25,,,0.02078635583178819,0.004268449238739268,0.0012247218400831075,4.869767606262472,0.7909714624046574,0.16242488889767065,-5.456504693645239,2021-10-14 15:23:02,2021-10-14 15:23:02.281,0.5371627627489513,0.07402093140225469,0.3155979302346016,1.2984573710313079,0.2999537825308918,-0.3123656377770901,0.04556135999319419,0.3796352939823268,0.4878504095602135,0.4094063790138813,0.2201795345467825,0.4034627868899006,0.3459143907831629,0.2470258884103164,0.1686995926123561,0.6197650282143592,-0.1113844872849602,0.1037937447676977,-0.1985180058367645,0.3295365836033452,796.1904761904763,681.7582417582418,780.8791208791209,815.934065934066,692.2344322344322,-0.35320999999999997,0.11193800000000001,0.9285889999999999,4.433746,-5.779572,-0.328979,23.0,41.0,-18.0
735.8024691358023,55.29297102549818,,,,,,,32.11921451939536,32.21340586182353,0.07514648746753948,0.04365195261864134,730.7692307692308,45.61846153846162,0.062425263157894866,67.30769230769238,11.728395061728394,51.851851851851855,11.571428571428573,156.25,,,0.02006703494004676,0.004110926611845907,0.0011847727563776278,4.8813897290752575,0.7912015595851307,0.16208530838512208,-5.494106822880832,2021-10-14 15:23:03,2021-10-14 15:23:03.276,0.7173445534998782,0.07402093140225469,0.5726365561177483,1.107770685676642,0.5860935932086684,-0.3123656377770901,0.2980710854155273,0.5941592091912872,0.8563067314961518,0.4094063790138813,0.4755927335249869,0.577987928548118,0.3073000097058655,0.2470258884103164,0.1738016399334536,0.6552067889845918,-0.251172376947717,0.1037937447676977,-0.1870201342476404,0.3065404149759327,762.7472527472528,124.10256410256409,760.7326007326008,732.5274725274727,1273.2600732600729,-0.333374,0.162964,0.9295040000000001,39.649506,4.3365480000000005,-64.96597299999999,21.0,31.0,-10.0
735.8815097945533,55.60282933195135,,,,,,,31.564248369760502,31.66276376450659,0.07555948694440605,0.04289311247754106,730.7692307692308,45.61846153846162,0.062425263157894866,69.23076923076928,11.180124223602483,50.931677018633536,12.384615384615385,85.9375,,,0.019586553741981438,0.003964979704521333,0.001155050880552512,4.939887515602301,0.7927665549678153,0.16048271392089716,-5.5302545425663485,2021-10-14 15:23:04,2021-10-14 15:23:04.279,1.308311366225301,0.07402093140225469,1.354961797397389,1.287265953133066,1.096440098143415,-0.3123656377770901,0.8723588585313194,0.9041220856649044,1.1339526296504099,0.4094063790138813,0.6849122473141602,0.6191501456341223,0.5473358909320921,0.2470258884103164,0.3053268605792755,0.5990414796054714,0.2592118825180047,0.1037937447676977,-0.05634075948683979,0.1048213564906373,778.4615384615387,0.0,792.5641025641023,805.8608058608058,997.2527472527472,-0.379761,0.08477799999999999,0.9375610000000001,3.708496,-9.652557,1.9888310000000002,24.0,48.0,-24.0
735.9449192782525,55.11660912958239,,,,,,,31.137311060859147,31.234463593542486,0.07489230197232115,0.04230929549917373,730.7692307692308,45.61846153846162,0.062425263157894866,69.23076923076928,10.493827160493826,50.0,12.461538461538463,85.9375,,,0.0197301191111744,0.003903627286610574,0.001156779954242953,5.054304026116588,0.795873344155939,0.15746447780812234,-5.545849084606998,2021-10-14 15:23:05,2021-10-14 15:23:05.280,1.2408942969707741,0.07402093140225469,0.8727199441619682,1.270621728122752,0.943796274246741,-0.3123656377770901,0.2523637548333887,0.8876371456397175,1.115300355782014,0.4094063790138813,0.2597639625111672,0.9844974966630162,0.5778391934714026,0.2470258884103164,0.3745570245797767,0.7361654715581599,0.2483904346036084,0.1037937447676977,0.1399467930196968,0.7213352004839245,792.1611721611722,1135.0549450549452,794.981684981685,781.6849816849817,887.2527472527472,-0.43438699999999997,0.075378,0.9268799999999999,3.252411,-9.046936,2.6094060000000003,36.0,49.0,-13.0
735.6600189933522,54.94246836709317,,,,,,,31.325595836904697,31.420996567940094,0.07468459199709432,0.042581620623843866,730.7692307692308,45.61846153846162,0.062425263157894866,67.30769230769238,10.493827160493826,50.617283950617285,12.461538461538463,85.9375,,,0.020215126602549698,0.0038317860579431423,0.0011694386431995744,5.275640731727321,0.8016673926806219,0.15195640367613594,-5.564424250822718,2021-10-14 15:23:06,2021-10-14 15:23:06.274,1.201469854809475,0.07402093140225469,0.5490693418424583,1.3072971379054819,0.995460833161522,-0.3123656377770901,0.2868884452483503,1.0343387085363291,1.167801384818157,0.4094063790138813,0.3309972261176405,1.000323844953572,0.4524903974700042,0.2470258884103164,0.3573834109418784,0.6465110817267316,0.1356539933607917,0.1037937447676977,0.2612427582620043,0.6845618791974137,789.3406593406594,1613.333333333333,796.1904761904763,829.2307692307692,704.3223443223442,-0.23474099999999998,0.08136,0.96759,0.680389,0.56076,-3.6711120000000004,43.0,39.0,4.0
734.8749410099102,54.802804357695635,,,,,,,31.92281948202238,32.01486136548519,0.0745743272758522,0.04343979866581392,730.7692307692308,45.61846153846162,0.062425263157894866,61.53846153846154,11.042944785276074,50.306748466257666,12.538461538461537,85.9375,,,0.021008759275421902,0.003807443722485191,0.0011949816047618757,5.517812161307297,0.8076817567649813,0.146377175074699,-5.570797254004077,2021-10-14 15:23:07,2021-10-14 15:23:07.275,1.1839633469766908,0.07402093140225469,0.6971807117499912,0.7527014992629242,1.2554460811391879,-0.3123656377770901,0.4627073309086063,0.6664758013967547,1.4324179044224952,0.4094063790138813,0.3319469312860907,0.7273927602859857,0.8686299112889649,0.2470258884103164,0.16494876523467,0.8279084886782984,0.3652735588333155,0.1037937447676977,-0.1484879162564215,0.5937972750842818,805.4578754578755,520.5860805860806,793.3699633699632,795.7875457875458,1062.930402930403,-0.11926300000000001,0.096497,1.0090940000000002,16.673279,-20.763092,25.675354000000002,46.0,56.99999999999999,-10.999999999999993
735.7549857549858,54.920496714840205,,,,,,,31.184488831946588,31.280466790498533,0.07464508943623974,0.04238433912880253,730.7692307692308,45.61846153846162,0.062425263157894866,67.30769230769238,10.493827160493826,50.0,12.461538461538463,85.9375,,,0.02188010032149312,0.003763160569017731,0.001218726244992862,5.814288261211324,0.8145376665963036,0.1400924120034266,-5.5824960978007985,2021-10-14 15:23:08,2021-10-14 15:23:08.276,0.1380345612494023,0.07402093140225469,0.7967426688762657,1.431093459303778,0.5155056774234753,-0.3123656377770901,0.4618673129530214,0.6759756462716359,1.271647083975636,0.4094063790138813,0.2363730018856569,0.5059489394454965,0.7578084739862629,0.2470258884103164,0.02692110487227919,0.8185809730798717,0.2902338420296947,0.1037937447676977,-0.3183002885525342,0.5507492616114563,776.0439560439563,794.5787545787546,784.9084249084249,780.0732600732601,745.4212454212454,-0.10272200000000001,0.145264,0.9989620000000001,2.773895,-4.246826,-0.014953999999999999,47.0,56.00000000000001,-9.000000000000009
735.8499525166193,54.951882100194865,,,,,,,31.272755322754396,31.370000953609605,0.07467810782926397,0.04249882087482788,730.7692307692308,45.61846153846162,0.062425263157894866,67.30769230769238,10.493827160493826,50.617283950617285,12.461538461538463,85.9375,,,0.023380022234878214,0.003737746683917564,0.0012629445960243323,6.255111491497178,0.8237996631997787,0.13170023656966026,-5.589272340057423,2021-10-14 15:23:09,2021-10-14 15:23:09.275,0.2113520589220561,0.07402093140225469,0.9392178008370928,1.775647497677949,0.2548705291360201,-0.3123656377770901,0.5809657758560306,0.7940102722226902,0.324996446443132,0.4094063790138813,0.395350774917894,0.48772417300803295,0.4292326662072232,0.2470258884103164,0.361117302031743,0.8405177644854656,0.2546390027755863,0.1037937447676977,0.2797498493728747,0.3757682143456163,780.0732600732601,1423.956043956044,801.025641025641,777.6556776556778,741.7948717948718,-0.28436300000000003,0.117493,0.9752200000000001,3.947754,-3.701019,-1.368256,54.0,24.0,30.0
735.8974358974358,54.95747590135399,,,,,,,31.24336086628927,31.340257946688077,0.07468089059765874,0.042456134975096926,730.7692307692308,45.61846153846162,0.062425263157894866,67.30769230769238,10.493827160493826,50.0,12.461538461538463,85.9375,,,0.0248425645959169,0.0037360126990733373,0.0013065855535350395,6.649486122485271,0.8312674995894422,0.125012291818838,-5.589736359511752,2021-10-14 15:23:10,2021-10-14 15:23:10.275,0.3418313864682727,0.07402093140225469,1.0162132290391341,1.92009721808693,0.415776643750724,-0.3123656377770901,0.6794411299240726,0.9718551931247706,0.3142883730686498,0.4094063790138813,0.3654957577981126,0.366438258729949,0.3578086035452439,0.2470258884103164,0.4811409435898655,0.8190785781469601,0.2460579929485965,0.1037937447676977,0.4577887314270223,0.3204825243053077,786.5201465201468,856.2271062271063,790.1465201465203,763.5531135531136,664.8351648351647,-0.34021,0.094055,0.929443,4.792633,4.545898,-2.310333,51.0,27.0,24.0
