HRV_MeanNN,HRV_SDNN,HRV_SDANN1,HRV_SDNNI1,HRV_SDANN2,HRV_SDNNI2,HRV_SDANN5,HRV_SDNNI5,HRV_RMSSD,HRV_SDSD,HRV_CVNN,HRV_CVSD,HRV_MedianNN,HRV_MadNN,HRV_MCVNN,HRV_IQRNN,HRV_pNN50,HRV_pNN20,HRV_HTI,HRV_TINN,HRV_ULF,HRV_VLF,HRV_LF,HRV_HF,HRV_VHF,HRV_LFHF,HRV_LFn,HRV_HFn,HRV_LnHF,Time,TimeStamp,Delta_TP9,Delta_AF7,Delta_AF8,Delta_TP10,Theta_TP9,Theta_AF7,Theta_AF8,Theta_TP10,Alpha_TP9,Alpha_AF7,Alpha_AF8,Alpha_TP10,Beta_TP9,Beta_AF7,Beta_AF8,Beta_TP10,Gamma_TP9,Gamma_AF7,Gamma_AF8,Gamma_TP10,RAW_TP9,RAW_AF7,RAW_AF8,RAW_TP10,AUX_RIGHT,Accelerometer_X,Accelerometer_Y,Accelerometer_Z,Gyro_X,Gyro_Y,Gyro_Z,Attention,Meditation,A_M
684.1732979664013,37.4633717085776,,,,,,,20.427419676461856,20.486521516710862,0.05475713802326348,0.029857084070920605,676.9230769230769,34.21384615384618,0.050543181818181855,51.92307692307702,1.1494252873563218,33.33333333333333,8.285714285714286,132.8125,,,0.02638918890092753,0.00804293009327357,0.0020823901100389805,3.2810416844226005,0.7227041948063108,0.22026669098338286,-4.8229618227213065,2021-10-14 14:33:00,2021-10-14 14:33:00.266,1.6815493134997122,1.2675666686160891,0.9895862140462488,1.202926961986408,0.6992660651201925,0.3922690523407722,0.2436935116117045,0.9855191399482832,0.7737421169007345,0.3569452714359377,0.4455560804602038,1.0904370476324001,0.9478922407015388,-0.07339803183048141,-0.1735653245720743,1.1307781053690649,0.8367943722571505,-0.5132243168114126,-0.1898365962577766,0.9592860671355048,477.4725274725275,785.7142857142858,790.1465201465203,784.1025641025641,704.7252747252749,-0.250366,0.07696499999999999,0.979492,4.1346739999999995,-7.005767999999999,1.936493,34.0,2.0,32.0
684.3501326259948,37.574443460015715,,,,,,,20.718364006538557,20.778073855151092,0.054905291412503575,0.030274508645213326,676.9230769230769,34.21384615384618,0.050543181818181855,51.92307692307702,1.1494252873563218,33.90804597701149,8.285714285714286,132.8125,,,0.024729725971705318,0.007436592155143516,0.0020053139748473737,3.325411082897832,0.7236916837366333,0.21762472840079475,-4.9013425787346865,2021-10-14 14:33:01,2021-10-14 14:33:01.265,1.6815493134997122,0.9608370870813964,0.7459351328159833,1.157120138207187,0.6992660651201925,0.08882972735384527,0.1113909319961225,0.5514447661197898,0.7737421169007345,0.1201846443503499,0.1835760773431673,0.823188829583326,0.9478922407015388,-0.06914690839082864,-0.05535669018414502,0.8590099307164709,0.8367943722571505,-0.4517312200749842,-0.2963514568661049,0.6986580105522998,192.6007326007326,818.7545787545787,803.040293040293,757.9120879120877,906.9963369963368,-0.23278800000000002,0.088501,0.9802860000000001,4.044951999999999,-5.959015,1.667328,32.0,0.0,32.0
684.6598488216986,38.115591845068714,,,,,,,20.943415874719317,20.99876917186036,0.05567084430416908,0.030589519614393906,676.9230769230769,34.21384615384618,0.050543181818181855,53.846153846153925,1.1560693641618496,34.68208092485549,8.238095238095237,132.8125,,,0.022659457536368558,0.0066898663132209995,0.0019058058834295988,3.38713159208986,0.7249836340442449,0.21404058694895,-5.0071613881177495,2021-10-14 14:33:02,2021-10-14 14:33:02.266,1.6815493134997122,1.526264679514836,1.2587982247630358,1.415070539529891,0.6992660651201925,-0.2330070318238335,0.01802361806631275,0.4012039078552032,0.7737421169007345,-0.09551665530598193,-0.01690104448003605,0.7326405548222076,0.9478922407015388,-0.1197160817612316,-0.027698237549041986,0.6286095529573101,0.8367943722571505,-0.4805151848746363,-0.2618632673215288,0.4750157077136711,834.4688644688645,820.7692307692308,814.3223443223442,792.5641025641023,773.6263736263736,-0.23016399999999998,0.09301799999999999,0.979187,3.8804629999999998,-5.069275,1.039276,35.0,0.0,35.0
685.9416445623341,39.780959532460855,,,,,,,21.11085408523198,21.161564878695028,0.0579946703160779,0.03077645781180378,676.9230769230769,34.21384615384618,0.050543181818181855,51.92307692307702,1.1494252873563218,34.48275862068966,8.7,132.8125,,,0.020489748305303968,0.0059568794291367825,0.001774815823794147,3.439678198803691,0.7260347353608404,0.2110763546465925,-5.123208520739048,2021-10-14 14:33:03,2021-10-14 14:33:03.266,1.6815493134997122,1.178304418871437,1.4382733364540639,1.4464088781556392,0.6992660651201925,0.3254946827345711,0.881464217002693,0.5524384920002927,0.7737421169007345,0.4924491154865129,0.6911341714073621,0.654127468201932,0.9478922407015388,-0.02057297538661036,0.06301175759026217,0.593331633314494,0.8367943722571505,-0.5730930414195159,-0.2846245157311812,0.5227950450714571,736.1538461538463,798.2051282051282,803.4432234432236,743.4065934065933,824.3956043956044,-0.231567,0.099182,0.980713,4.658051,-5.585175,1.24115,30.0,0.0,30.0
686.5605658709109,40.824997569982116,,,,,,,21.08653748577924,21.13570722732666,0.05946306793515745,0.030713295423588294,676.9230769230769,34.21384615384618,0.050543181818181855,51.92307692307702,1.1494252873563218,34.48275862068966,8.7,132.8125,,,0.01897222855832091,0.0054302369661957325,0.0016897471344981825,3.4938122730972285,0.7271222569836764,0.2081171511653916,-5.2157725058051225,2021-10-14 14:33:04,2021-10-14 14:33:04.266,1.6815493134997122,0.7924428189037255,0.9490073754194084,1.2262896571501898,0.6992660651201925,0.4420672954886155,0.6420474478564755,0.8173671626693462,0.7737421169007345,0.4413852366148243,0.5463952113596242,0.4954689901752979,0.9478922407015388,-0.0415485902513325,-0.09651498012380076,0.8413809755607028,0.8367943722571505,-0.6395450290895225,-0.3855110327104272,0.6760958130111422,770.8058608058608,789.3406593406594,805.8608058608058,753.4798534798535,1052.051282051282,-0.20361300000000002,0.097595,0.9814450000000001,4.710388,-6.4225769999999995,2.347717,24.0,1.0,23.0
687.105380168964,41.515070073392465,,,,,,,21.074415843979935,21.133614962907288,0.06042023723229125,0.030671300869158664,676.9230769230769,34.21384615384618,0.050543181818181855,53.846153846153925,1.1560693641618496,34.68208092485549,8.65,85.9375,,,0.01734152944166641,0.004871563642379632,0.0015920088556487086,3.559746051720577,0.728479528699249,0.2046436791037787,-5.324340316957667,2021-10-14 14:33:05,2021-10-14 14:33:05.267,1.6815493134997122,0.7095149859856407,0.9656055431080538,0.8599551299510335,0.6992660651201925,0.4244458562191577,0.6439113956775172,0.3371855523371071,0.7737421169007345,0.4051029420671992,0.2919034371923338,0.7836308879816822,0.9478922407015388,-0.0684414607120267,-0.01890535260292876,1.073966092463189,0.8367943722571505,-0.5417007450081698,-0.5144493434638494,0.7973223701652987,752.2710622710623,809.4871794871796,795.7875457875458,749.047619047619,722.0512820512822,-0.197327,0.10736099999999996,0.9880979999999999,3.738403,-4.9047849999999995,1.009369,17.0,18.0,-1.0
688.41732979664,43.66137162202928,,,,,,,21.21590395998595,21.268327820387412,0.06342282469113167,0.0308183757754227,676.9230769230769,34.21384615384618,0.050543181818181855,51.92307692307702,1.1494252873563218,35.05747126436782,8.7,85.9375,,,0.01613974977648001,0.00447443985573387,0.0015103296709941775,3.607099502253308,0.7294960652157421,0.20223896367705835,-5.4093741069930195,2021-10-14 14:33:06,2021-10-14 14:33:06.275,1.6815493134997122,0.7262722507415559,0.7352239912926715,0.859833519077775,0.6992660651201925,0.2983084342101009,0.2642398839585434,0.4834788418125392,0.7737421169007345,0.3222413841656534,0.1670871739285271,0.7912245336924713,0.9478922407015388,-0.06861639673006975,0.0545887064051328,1.0396243809226668,0.8367943722571505,-0.5545739777382943,-0.4363100118580351,0.946123245650598,703.5164835164835,798.2051282051282,809.0842490842491,781.6849816849817,641.8681318681319,-0.216125,0.097961,0.9824219999999999,4.015045,-4.224396,-0.209351,2.0,35.0,-33.0
688.7950200088928,44.34796193948592,,,,,,,21.398407413260017,21.45521241740776,0.06438484694461548,0.03106643746202426,676.9230769230769,34.21384615384618,0.050543181818181855,53.846153846153925,1.1560693641618496,35.260115606936424,8.65,85.9375,,,0.015310808873757737,0.00420301474411356,0.0014528475250833793,3.6428158847648464,0.7302451003960421,0.20046170970377805,-5.471953214967795,2021-10-14 14:33:07,2021-10-14 14:33:07.277,1.6815493134997122,0.587820842039335,0.4492019357318691,1.0449925303709429,0.6992660651201925,0.1446610055866489,0.2168756343586082,0.902566956351633,0.7737421169007345,0.3175504765405108,0.3412701738178116,0.8825310772816791,0.9478922407015388,-0.001723131487921047,-0.07245741459254948,1.0329687328853279,0.8367943722571505,-0.4319007550226922,-0.3574107589373286,0.8642009617294901,713.5897435897436,788.5347985347986,796.9963369963368,748.2417582417582,734.945054945055,-0.21826199999999998,0.110107,0.985352,4.358978,-4.441223,0.72525,0.0,47.0,-47.0
689.3730546909738,45.139497592413136,,,,,,,21.398407413260017,21.45033591300356,0.06547905707258588,0.03104038846260435,676.9230769230769,34.21384615384618,0.050543181818181855,61.53846153846154,1.1560693641618496,35.260115606936424,8.65,85.9375,,,0.014542047253533806,0.003969643258631241,0.001391718223963152,3.663313377572372,0.7306309912199825,0.19944539708043266,-5.529079047607468,2021-10-14 14:33:08,2021-10-14 14:33:08.268,1.6815493134997122,0.41058724314682105,0.7001248744104929,0.8685759744787779,0.6992660651201925,0.1240286486182777,0.2809891194776961,0.6586317657388412,0.7737421169007345,-0.20038134333929009,0.06471372752641981,0.8192554096012846,0.9478922407015388,0.07310564996845438,-0.2865949037916029,1.036655196060185,0.8367943722571505,-0.4717359911656928,-0.4171467016154262,0.8923969113716476,770.4029304029305,790.5494505494507,814.7252747252749,778.0586080586081,567.3260073260074,-0.21698,0.106018,0.9761350000000001,3.768311,-5.465546,0.605621,0.0,34.0,-34.0
690.3398926654739,46.351145937613296,,,,,,,21.46088464815257,21.503049853957506,0.06714249955720611,0.031087417772265587,676.9230769230769,34.21384615384618,0.050543181818181855,61.53846153846154,1.162790697674419,35.46511627906977,8.6,85.9375,,,0.014001006154546657,0.0038272363596492547,0.0013387519490169516,3.6582548969695132,0.7304747847357463,0.19967848203821706,-5.565612313366731,2021-10-14 14:33:09,2021-10-14 14:33:09.266,1.6815493134997122,0.9166799208625716,0.7522985324327958,1.009566654408305,0.6992660651201925,0.4085776352093242,0.6889173273119799,0.4869290313015791,0.7737421169007345,0.5299710045249577,0.5164133701967432,0.7309405483993834,0.9478922407015388,0.0344401432327555,-0.1720180516089777,1.001684956623895,0.8367943722571505,-0.472661910389663,-0.5109252032553881,0.9213681834735404,695.054945054945,786.1172161172162,808.6813186813188,786.9230769230769,732.9304029304027,-0.221375,0.10321,0.984192,3.648682,-5.435638,0.971985,5.0,20.0,-15.0
691.3180386864598,46.99523267008079,,,,,,,21.612671123218526,21.657508466785288,0.06797917895990993,0.031262993172120494,684.6153846153846,45.61846153846145,0.06663370786516842,57.692307692307736,1.1695906432748535,36.25730994152047,8.55,85.9375,,,0.013564627077635208,0.0037474521157443656,0.0012823620971236724,3.6196932365447534,0.7294990403698272,0.20153615035791936,-5.5866791057224265,2021-10-14 14:33:10,2021-10-14 14:33:10.266,1.6815493134997122,0.975417101503742,0.8507214160689834,0.4329591233667399,0.6992660651201925,0.45158993311697604,0.6949087676518481,0.3889988199720239,0.7737421169007345,0.5292347926261719,0.5281664871004014,0.648356571349184,0.9478922407015388,-0.07199467322224203,-0.08816594765352552,1.002671524323383,0.8367943722571505,-0.3574614464082021,-0.5668855820256838,0.7397090429644024,698.2783882783882,799.4139194139194,798.2051282051282,801.4285714285713,1036.336996336996,-0.225647,0.10778800000000001,0.9818120000000001,4.216919,-4.209442,0.059814,2.0,2.0,0.0
693.1127012522362,48.743214838498886,,,,,,,21.931381653430236,21.95948556212728,0.07032509251444284,0.031641869516757015,684.6153846153846,45.61846153846145,0.06663370786516842,53.84615384615381,1.7441860465116281,36.62790697674419,8.6,85.9375,,,0.01315123171532546,0.003689054037459622,0.0012213450780096135,3.56493333569647,0.7281309112410209,0.20424811424945435,-5.602385212207164,2021-10-14 14:33:11,2021-10-14 14:33:11.266,1.6815493134997122,0.688977947591385,0.6956007992184872,0.8430373957210674,0.6992660651201925,0.2227630189418034,0.5206223327368051,0.9089151098059708,0.7737421169007345,0.1297535608606488,0.3888768848655436,1.141803624105945,0.9478922407015388,-0.06619016430888289,-0.049321688877927566,0.8733373097857114,0.8367943722571505,-0.4859537739545211,-0.5399602519271353,0.6842522943823159,778.4615384615387,799.4139194139194,795.3846153846154,764.7619047619047,550.4029304029306,-0.230713,0.100342,0.982483,4.463654,-5.144043,0.49346899999999994,0.0,0.0,0.0
694.4096601073346,50.02562399829338,,,,,,,21.931381653430236,21.95948556212728,0.07204050702658851,0.031582771544451604,684.6153846153846,45.61846153846145,0.06663370786516842,53.84615384615381,1.7441860465116281,36.62790697674419,8.6,85.9375,,,0.012850869227622514,0.0036820297491871982,0.0011649695346295276,3.49015898919864,0.7261252517113116,0.20804933355716096,-5.604291116576731,2021-10-14 14:33:12,2021-10-14 14:33:12.276,1.6815493134997122,0.6163279773846183,0.6303401404389551,0.8171534405113683,0.6992660651201925,0.17254871672017402,0.6426906625886664,0.5040181807467455,0.7737421169007345,0.2040124741822772,0.3480013384423436,0.4125533491620939,0.9478922407015388,-0.06491825687500119,-0.07826787915147326,0.9870161256869462,0.8367943722571505,-0.5718121917517485,-0.3860425735093208,0.7197903532594379,689.4139194139194,780.8791208791209,778.0586080586081,793.7728937728937,907.8021978021976,-0.220642,0.10681199999999999,0.984619,4.4487,-5.921631,0.530853,1.0,0.0,1.0
695.591542959964,50.39985005872047,,,,,,,22.488733304760146,22.53868190139474,0.07245609951531758,0.032330371943660216,684.6153846153846,45.61846153846145,0.06663370786516842,53.84615384615381,2.3391812865497075,37.42690058479532,8.55,85.9375,,,0.012797957500436058,0.003791142201555277,0.0011173552080988014,3.3757524302796735,0.7227848581447581,0.21411074214493775,-5.575087932849328,2021-10-14 14:33:13,2021-10-14 14:33:13.266,1.6815493134997122,0.8819330625695369,0.8972573986088695,0.8088226680901534,0.6992660651201925,-0.09410544740657474,0.2851521869156511,0.3376903941907966,0.7737421169007345,-0.196434195024099,0.08732132031207579,0.7109259188066042,0.9478922407015388,-0.1963982063265974,-0.2052351510304561,1.024979552156354,0.8367943722571505,-0.5787188573595048,-0.5188634336090415,0.8628036266964492,743.0036630036632,800.2197802197803,804.2490842490844,761.9413919413921,1170.1098901098899,-0.219849,0.115906,0.9821780000000001,5.555267,-5.3533940000000015,1.644897,3.0,1.0,2.0
696.6515837104073,50.755947267386716,,,,,,,22.17159052685822,22.232793011736728,0.07285700406659172,0.03182593859726985,684.6153846153846,45.61846153846145,0.06663370786516842,53.84615384615381,1.7647058823529411,37.058823529411775,8.5,85.9375,,,0.012738905602350359,0.0038871280189419492,0.0010736380623030252,3.277202484784077,0.7197255310762186,0.21961582612544575,-5.5500846925008265,2021-10-14 14:33:14,2021-10-14 14:33:14.266,1.6815493134997122,0.5845193222003663,0.9061742046650176,0.5963901118053536,0.6992660651201925,0.03599122988483903,0.3291729419622783,0.4118274648330623,0.7737421169007345,-0.06740090491341333,0.1171280024188044,0.8783825464904488,0.9478922407015388,-0.2812955934438485,-0.06994725517238391,0.9054778148165636,0.8367943722571505,-0.4692184469649817,-0.4010928670581849,1.0139293855666072,707.948717948718,796.9963369963368,807.4725274725273,776.4468864468864,640.2564102564102,-0.225647,0.10839800000000001,0.992188,4.254303,-5.4879760000000015,-0.456085,7.000000000000001,9.0,-1.9999999999999991
697.4358974358976,51.2292337356345,,,,,,,22.2240591730224,22.28855881519701,0.07345368072388771,0.03186537896131888,684.6153846153846,45.61846153846145,0.06663370786516842,61.53846153846154,1.7543859649122806,37.42690058479532,8.55,85.9375,,,0.012933838808504308,0.004072572838333103,0.0010500568946058288,3.1758397754767014,0.7162994679063927,0.22554647543542225,-5.5034803322378005,2021-10-14 14:33:15,2021-10-14 14:33:15.266,1.6815493134997122,0.26059659389301604,1.020315781305311,0.6288782817556825,0.6992660651201925,-0.1579838895765271,0.3465555529429434,0.5456469772890993,0.7737421169007345,0.09938573999386288,0.4212067689635503,0.7213323366572837,0.9478922407015388,-0.1947651920639765,-0.09742863014404278,0.8862078990464215,0.8367943722571505,-0.4885219590885641,-0.4036718755442552,0.9768259635623022,935.2014652014653,806.2637362637363,803.4432234432236,784.9084249084249,848.5714285714287,-0.223206,0.110107,0.983215,4.747772,-5.50293,0.852356,12.0,32.0,-20.0
697.7507872244714,51.50495337057601,,,,,,,22.2240591730224,22.285971323752765,0.07381568650814935,0.031850998350608464,684.6153846153846,45.61846153846145,0.06663370786516842,61.53846153846154,1.7543859649122806,37.42690058479532,8.55,85.9375,,,0.013610932076103041,0.0044224935132804,0.001062951028624277,3.0776601560252117,0.7127494575734357,0.23158809661881236,-5.421051598685417,2021-10-14 14:33:16,2021-10-14 14:33:16.266,1.6815493134997122,0.5151851939415723,1.367144283436346,0.4803789491752435,0.6992660651201925,0.1855089151299606,0.5467306820161011,0.6327569763658142,0.7737421169007345,0.05857690538558433,0.4065361770627291,0.2575050691303666,0.9478922407015388,-0.2157962425763578,-0.06154334448550081,0.9533880538730212,0.8367943722571505,-0.5393130569272786,-0.4239362992425775,0.961428622512866,1005.714285714286,806.2637362637363,780.0732600732601,777.6556776556778,1126.593406593407,0.030273,0.135437,0.986023,1.547699,-11.073151,-3.379517,9.0,50.0,-41.0
698.552036199095,52.292349856383495,,,,,,,22.289713848328248,22.335388678046346,0.07485820260565328,0.031908451616015944,688.4615384615386,39.91615384615382,0.057978770949720634,61.53846153846154,1.7647058823529411,37.058823529411775,8.5,85.9375,,,0.014605598137224838,0.004926399599054518,0.0010877080509753133,2.9647611493042434,0.7083320338281821,0.23891706554317546,-5.313146862181156,2021-10-14 14:33:17,2021-10-14 14:33:17.272,1.6815493134997122,1.258690232703324,1.3575013993493767,0.1989891458459031,0.6992660651201925,0.3547388921129903,0.6415131483732647,0.09690878572151317,0.7737421169007345,0.1683132298404779,0.1878251121840179,0.8064835183564452,0.9478922407015388,-0.05867766383533006,-0.2155154402374172,1.067915403812255,0.8367943722571505,-0.4552427465006116,-0.4213136794988221,0.8945064678848678,1350.2197802197802,788.9377289377289,801.4285714285713,774.4322344322345,633.8095238095239,0.015137000000000001,0.146912,1.0029299999999999,4.493561,-5.570221,0.508423,18.0,57.99999999999999,-39.99999999999999
699.5051731893838,52.345914959711116,,,,,,,22.418976597076988,22.47347963903804,0.07483277746330405,0.03204976525742903,692.3076923076923,45.61846153846145,0.06589333333333322,69.23076923076917,1.7543859649122806,37.42690058479532,8.55,85.9375,,,0.015076391317359909,0.005227524821835428,0.0010842977141988929,2.8840401205529735,0.7048924898872443,0.24441147155473386,-5.253817378354169,2021-10-14 14:33:18,2021-10-14 14:33:18.266,1.6815493134997122,0.6004300120800663,1.1853235542622218,0.5978747386829399,0.6992660651201925,-0.09968425325648544,0.3481350168481821,0.1255806613031515,0.7737421169007345,0.1435288391942169,0.2341790378396901,0.899508308616317,0.9478922407015388,-0.061602802151670015,-0.2115928209187591,0.9528037178449608,0.8367943722571505,-0.5819999484912641,-0.5321856224181439,0.9823000641682652,885.6410256410257,788.9377289377289,781.2820512820513,811.9047619047618,1041.575091575092,0.042419,0.15783699999999998,0.996094,5.390778,-7.7085880000000015,1.3383479999999999,18.0,54.0,-36.0
701.0407239819007,52.01007810948807,,,,,,,22.725283277717786,22.772647041508225,0.07418980999287976,0.03241649521961937,692.3076923076923,45.61846153846145,0.06589333333333322,69.23076923076928,1.7647058823529411,38.23529411764706,8.5,85.9375,,,0.01585133952829583,0.005665492858657682,0.0010974066876094236,2.7978747699015667,0.7009450760660709,0.2505276803688863,-5.173361387640841,2021-10-14 14:33:19,2021-10-14 14:33:19.266,1.6815493134997122,0.3867151066098324,1.326287149749985,1.1717034108021962,0.6992660651201925,0.1302817777902441,0.4244856806388359,0.6290303032248411,0.7737421169007345,0.2830800052344218,0.1823632693543649,0.6222194280469371,0.9478922407015388,-0.05049829272123743,-0.1333199147508902,1.0912145277950358,0.8367943722571505,-0.5819227762735474,-0.6780163740957191,1.019795531557415,1112.087912087912,802.6373626373628,794.1758241758242,777.2527472527472,1044.798534798535,0.05841100000000001,0.171692,0.999878,3.170166,-3.342133,-0.657959,20.0,37.0,-17.0
702.1392808375058,51.6967969733295,,,,,,,22.94682497769085,23.00768091637635,0.07362755280072923,0.032681300710480234,692.3076923076923,45.61846153846145,0.06589333333333322,69.23076923076928,1.7751479289940828,39.05325443786983,8.45,85.9375,,,0.016374493905865834,0.005974039064527854,0.001107035078694082,2.7409418868873705,0.6981069003145575,0.2546959874101278,-5.120332020118896,2021-10-14 14:33:20,2021-10-14 14:33:20.266,1.6815493134997122,0.1980515689286175,1.233542602148413,1.143743459018368,0.6992660651201925,-0.3362846032198067,0.3220211028968663,0.713377833180798,0.7737421169007345,0.022634775104448283,-0.03435334530473379,0.6148015895299435,0.9478922407015388,-0.2184653532967357,-0.120623778342856,1.188151333624677,0.8367943722571505,-0.5952790520121547,-0.5749476674013827,1.0086487863421958,738.5714285714287,765.1648351648352,793.7728937728937,808.2783882783882,807.0695970695973,-0.320984,0.097595,0.951599,4.321594,-7.551575,0.30654899999999996,21.0,27.0,-6.0
702.9411764705882,51.585101956764184,,,,,,,23.12996483513854,23.189896216231322,0.07338466387154736,0.032904552485134325,692.3076923076923,45.61846153846145,0.06589333333333322,69.23076923076928,1.7647058823529411,40.0,8.5,85.9375,,,0.01719717769463184,0.006379311929614239,0.001140993605375916,2.6957731310799478,0.6957495443558085,0.2580890566548105,-5.0546950354643005,2021-10-14 14:33:21,2021-10-14 14:33:21.270,1.6815493134997122,0.2240247092934062,0.8197098783738369,0.6186410507175664,0.6992660651201925,-0.3164705452163695,-0.1064568705005933,0.3714220079062959,0.7737421169007345,-0.028568460545821538,-0.028986111151053283,0.3942844949622352,0.9478922407015388,-0.2149524921407057,0.1785316380411697,0.8683614853705132,0.8367943722571505,-0.5972021671961857,-0.07154959585822665,0.7396036405462021,355.78754578754575,759.1208791208792,807.8754578754579,781.2820512820513,1067.362637362637,-0.304321,0.095459,0.9675290000000001,3.596344,-5.861816,-0.30654899999999996,26.0,25.0,1.0
703.6413290851161,51.785974796812496,,,,,,,23.000483903420182,23.064673256531464,0.0735971192370768,0.03268779554681035,692.3076923076923,45.61846153846145,0.06589333333333322,69.23076923076928,1.7751479289940828,39.644970414201175,8.45,85.9375,,,0.01806759292258876,0.006787561987909657,0.001183773639531174,2.661867833365154,0.6938685241166818,0.260669788116222,-4.992663461106746,2021-10-14 14:33:22,2021-10-14 14:33:22.266,1.6815493134997122,0.8119273872861134,0.8272879898419271,1.208703239420426,0.6992660651201925,0.238407038084331,0.03524178226186288,0.6835792716369814,0.7737421169007345,0.2200007805605873,0.09763798376546244,0.7329780116611689,0.9478922407015388,-0.3008124111868813,-0.008542330953972149,0.9253313214101834,0.8367943722571505,-0.7054721321750869,-0.2176707989477989,0.6073127914106836,745.0183150183151,774.8351648351648,826.007326007326,716.4102564102565,947.6923076923076,-0.304199,0.096069,0.9639280000000001,3.8954160000000004,-6.594542999999999,0.971985,34.0,25.0,9.0
703.823395539372,51.772772960060365,,,,,,,23.24420444525991,23.31206558936624,0.07355932367150787,0.033025620620989474,692.3076923076923,45.61846153846145,0.06589333333333322,69.23076923076928,1.7751479289940828,40.23668639053255,8.45,85.9375,,,0.019623296286714928,0.00743584947785707,0.0012783059434621636,2.6390120382547257,0.6924862718390229,0.2624036047584645,-4.901442451681628,2021-10-14 14:33:23,2021-10-14 14:33:23.266,1.6815493134997122,0.9572830366454892,1.20521886841038,1.4430437524738169,0.6992660651201925,0.3504538894467987,0.8762198296957079,0.936910807727524,0.7737421169007345,0.3610324792846651,0.4664645026904222,0.6685098183367622,0.9478922407015388,-0.07656780954976193,0.024172269066658692,0.8683870787930694,0.8367943722571505,-0.5396151759359196,-0.35721330268520296,0.4652859111044799,825.2014652014653,805.4578754578755,804.6520146520148,779.2673992673992,579.4139194139194,-0.296692,0.098083,0.957031,4.463654,-5.345917,-0.022430000000000002,38.0,31.0,7.0
705.4164770141102,52.693066692588786,,,,,,,23.975191460737843,24.02563211854709,0.07469781102311109,0.03398728586865469,692.3076923076923,45.61846153846162,0.06589333333333346,76.923076923077,2.366863905325444,41.42011834319527,8.45,85.9375,,,0.02087010614670478,0.007961108466082494,0.001362657373164776,2.6215075746825685,0.6912033725391288,0.2636663648102657,-4.8331870342878815,2021-10-14 14:33:24,2021-10-14 14:33:24.274,0.865418176939017,0.9224320366258796,0.940627689288846,0.8384971499170482,0.34180171420834304,0.2510146515665286,0.6862923054092434,0.6758367943293082,0.8169575176297442,0.2864549813358626,0.419109369013304,0.8048290285971306,0.6104779114559636,-0.08706167526877001,-0.03067793493149726,1.138131016457935,0.3613931545062802,-0.5830386573451238,-0.2418260472171881,0.6734113428440994,774.8351648351648,794.5787545787546,803.040293040293,791.7582417582418,957.3626373626372,-0.292969,0.098083,0.961182,3.454285,-4.643097,0.508423,45.0,34.0,11.0
706.3723258989531,53.21458387876844,,,,,,,23.953145303008046,24.001523461404247,0.0753350349775464,0.033910084561317534,692.3076923076923,45.61846153846162,0.06589333333333346,76.923076923077,2.366863905325444,41.42011834319527,8.45,85.9375,,,0.021956075094822537,0.008389303094522528,0.0014507765495324868,2.6171512517121847,0.6905261115733774,0.2638464670781345,-4.780797825776312,2021-10-14 14:33:25,2021-10-14 14:33:25.266,0.7208179469884605,0.615913349041045,0.9838141151924186,0.8865138141153484,0.5141604723367247,0.3084418057402301,0.5687280774870623,0.8953325345171387,1.049707909090209,0.0989391304452069,0.5223287376896328,1.156112180858083,0.7107669536118927,-0.1924138482227428,-0.001924592393329535,1.037223159858999,0.3871843949104959,-0.4314372326435843,-0.1974551284360103,0.6223745348088122,803.4432234432236,794.981684981685,793.7728937728937,770.0,603.1868131868133,-0.295227,0.09753400000000001,0.962585,4.157104,-5.301056,0.478516,46.0,35.0,11.0
707.6007326007326,52.8799815916441,,,,,,,24.288770483740137,24.35196088772028,0.0747313833286856,0.03432553043644912,692.3076923076923,45.618461538461546,0.06589333333333335,76.923076923077,2.976190476190476,41.66666666666667,8.4,85.9375,,,0.02239591161185001,0.008535200145049797,0.00150122513083232,2.6239468590363493,0.6905426423441444,0.263169446426117,-4.763556473092717,2021-10-14 14:33:26,2021-10-14 14:33:26.265,0.6700259220201528,0.3697394932865868,1.205210852508255,0.3801838816189131,0.4712629719981609,0.2132572813018603,0.7360743036500401,0.6288280824745801,0.4261735510517457,0.1278683602328965,0.5646272285421413,0.5891606957073191,0.904890068848039,-0.03484898856737509,0.1353898780180166,0.8022683995033073,0.1535915768483561,-0.4734404421776658,-0.3608795338603716,0.9090890836896712,732.9304029304027,785.7142857142858,829.2307692307692,695.8608058608058,592.7106227106228,-0.29986599999999997,0.099609,0.9589840000000001,3.6860660000000003,-5.345917,-0.104675,43.0,25.0,18.0
708.3750568957671,52.654489781173325,,,,,,,24.281736037345446,24.34809143322728,0.07433137187511263,0.034278078824164976,700.0,57.02307692307691,0.08146153846153842,76.923076923077,2.9585798816568047,42.011834319526635,8.45,85.9375,,,0.023171063229401292,0.008767633843525661,0.001580543261774148,2.642795495675455,0.691276502630438,0.2615701834521854,-4.736688310195273,2021-10-14 14:33:27,2021-10-14 14:33:27.265,0.6700259220201528,0.4294276439255694,0.8260185914203353,0.3801838816189131,0.4712629719981609,0.3962482233085645,0.4849434701041166,0.6288280824745801,0.4261735510517457,0.1109702755341852,0.507963856814527,0.5891606957073191,0.904890068848039,-0.020801780458779808,-0.06508280031322149,0.8022683995033073,0.1535915768483561,-0.4719986498013375,-0.3651901389499033,0.9090890836896712,764.7619047619047,779.6703296703297,780.4761904761905,802.2344322344322,933.1868131868132,-0.297852,0.095337,0.96167,3.6187739999999997,-4.897308,-0.16449,39.0,15.0,24.0
709.1117216117217,52.31175561311987,,,,,,,24.455955375363263,24.52794094604618,0.07377082343840241,0.03448815557551066,700.0,45.61846153846162,0.0651692307692309,76.923076923077,2.976190476190476,42.857142857142854,8.4,85.9375,,,0.024562585437342816,0.009146076791793505,0.0017149644271042314,2.6855870551384466,0.6933955598534303,0.2581914291427371,-4.6944302575653065,2021-10-14 14:33:28,2021-10-14 14:33:28.272,1.219796919727171,1.080358684751297,1.1391104044327642,1.180362325727617,0.7435257739212768,0.4382209538658106,0.3816397055348029,0.7199586045863069,0.8013272114137551,0.4832869515777131,0.4640418149563304,0.8977671663711216,0.7817515378328995,0.028493740262398263,-0.1012272484511155,0.7766603835123077,0.5656530637668605,-0.2162900982139387,-0.2836824336320468,0.8418792053212143,801.4285714285713,796.1904761904763,807.8754578754579,785.3113553113553,971.0622710622713,-0.33605999999999997,0.093323,0.9522709999999999,4.104767,-1.786957,0.014953999999999999,34.0,1.0,33.0
709.4322344322345,52.13577827520554,,,,,,,24.397934047178488,24.470613663405565,0.07348944091457912,0.034390788665959605,700.0,45.61846153846162,0.0651692307692309,71.15384615384619,2.976190476190476,42.26190476190476,8.4,85.9375,,,0.025862863615347568,0.009445688987935286,0.0018367915668243075,2.7380600449984622,0.6962612460099586,0.2542899843565519,-4.6621968333164805,2021-10-14 14:33:29,2021-10-14 14:33:29.271,1.764651188265614,1.5814177063421406,1.386487862753291,1.597210346565035,0.5960579758924717,0.5168991151356012,0.4320963395939559,0.6076338954558571,0.8089840587795868,0.5673029955315799,0.4924663348241209,0.8929682239889318,0.6873685244457258,0.1414357163129086,-0.1614235446695205,0.9483672059187428,0.6424309044002452,-0.2620848496947371,-0.3756632951063978,0.9048365858615028,755.8974358974359,887.6556776556778,846.959706959707,721.6483516483516,764.7619047619047,-0.343567,0.083801,0.9569700000000001,5.001983999999998,-5.046844,0.732727,30.0,0.0,30.0
710.0274725274726,52.04773870045866,,,,,,,24.368871578200483,24.437794837064658,0.07330383782923952,0.034321026327974374,700.0,45.61846153846162,0.0651692307692309,71.15384615384619,2.976190476190476,41.66666666666667,9.333333333333334,85.9375,,,0.02758664368335108,0.009822712532699542,0.0019858146582997067,2.8084547513241267,0.7002544492404366,0.2493379852070899,-4.623057969433135,2021-10-14 14:33:30,2021-10-14 14:33:30.278,2.088372035214799,1.760253431545497,1.3951775695476032,1.6766071970512033,0.7972951109221341,0.4038958642343683,0.2088660758300743,0.5992546824028667,0.584145436690518,0.5064574488142257,0.4622172650822664,0.7854727285252728,0.7642680184864725,-0.0860755380369294,-0.1112238757445367,0.916516238856171,0.6053441930575805,-0.4792407723775762,-0.3910000277229765,0.9039142279551842,742.1978021978023,813.5164835164835,790.1465201465203,797.3992673992674,1152.783882783883,-0.34021,0.074646,0.9490360000000001,4.486084,-5.181426999999999,1.106567,39.0,6.0,33.0
710.5481345002304,51.956042931171254,,,,,,,24.434868680694585,24.50840522942927,0.07312107429247555,0.03438875917657717,700.0,45.61846153846162,0.0651692307692309,69.23076923076928,2.9940119760479043,41.916167664670645,9.823529411764708,85.9375,,,0.028536031199940224,0.00976300456180127,0.0020729809036938336,2.922873898020114,0.7068269944605335,0.24182603120145604,-4.629155081484664,2021-10-14 14:33:31,2021-10-14 14:33:31.266,1.76175709849896,1.22503988489743,1.1567557848056391,1.205110700573039,0.8147969428987957,0.08294873577639729,0.2401166862113896,0.349761004283427,0.6659151913075078,0.4182876840375886,0.1705726384526622,0.3959851349367174,0.8647626713645408,-0.0424474869247005,-0.1513824923558619,0.8125256547400139,0.5875374942594072,-0.4503981289472175,-0.4028742528815289,0.8456589046611674,723.2600732600732,794.981684981685,797.3992673992674,789.7435897435898,908.6080586080586,-0.33618200000000004,0.082947,0.948975,4.007568,-5.4954529999999995,0.822449,48.0,15.0,33.0
711.1721611721613,51.93904781117103,,,,,,,24.60041000064793,24.67007072418271,0.07303301597965331,0.03459135683840786,700.0,45.61846153846162,0.0651692307692309,69.23076923076928,2.976190476190476,42.26190476190476,9.882352941176473,85.9375,,,0.029440012594762026,0.009703423110978002,0.0021390081211877607,3.0339821584668365,0.7131363811257424,0.2350496291270585,-4.635276557687698,2021-10-14 14:33:32,2021-10-14 14:33:32.266,1.5794023443540082,0.7694098415834596,1.267232235381636,1.0696919691887121,1.01839019787096,0.1502367032374902,0.4585896954645098,0.3646660045068956,0.5541694645927314,0.1187957696544758,0.450126729901039,0.3337033728220868,0.9346257613934112,-0.1358947226775469,-0.2073518881619128,0.8673954850531922,0.5944795884401732,-0.433163331603735,-0.4016995337279479,0.8213470797081915,748.6446886446887,802.6373626373628,800.2197802197803,780.0732600732601,570.952380952381,-0.330505,0.086365,0.9545899999999999,3.656158,-5.846863,-0.216827,56.00000000000001,36.0,20.000000000000007
711.4468864468864,51.83783948437697,,,,,,,24.686677045056324,24.75816421126475,0.07286255723637491,0.034699255159224486,703.8461538461537,51.32076923076927,0.0729147540983607,69.23076923076928,2.976190476190476,42.857142857142854,9.882352941176473,85.9375,,,0.030151842109131643,0.009543014694980378,0.0021751272862819858,3.159572008727127,0.7201302499670453,0.22792018918320486,-4.651945837678103,2021-10-14 14:33:33,2021-10-14 14:33:33.266,1.5794023443540082,0.8508766741136942,1.392762375479039,1.0696919691887121,1.01839019787096,0.1982602650824095,0.6088692903471007,0.3646660045068956,0.5541694645927314,0.182320827447235,0.4751506832892002,0.3337033728220868,0.9346257613934112,-0.2261069938297943,-0.0835288181097408,0.8673954850531922,0.5944795884401732,-0.441260393428867,-0.4900494086244726,0.8213470797081915,682.967032967033,801.025641025641,799.8168498168499,805.8608058608058,964.6153846153846,-0.322388,0.08325199999999999,0.954834,4.231873,-5.622559,0.755157,63.0,54.0,9.0
712.0681713496083,51.69459592884997,,,,,,,24.72490695108741,24.79758341425747,0.07259781859210382,0.03472266834259057,707.6923076923077,57.02307692307691,0.08057608695652171,69.23076923076928,2.9940119760479043,43.113772455089816,9.823529411764708,85.9375,,,0.03055385679538123,0.009171691778757813,0.0021629710141231667,3.3313218032627088,0.7294088474767411,0.2189547844829507,-4.69163351913488,2021-10-14 14:33:34,2021-10-14 14:33:34.266,1.214363514326581,0.7005218342178389,0.9083410316035734,0.9852782283632212,1.1092342090199008,0.29025848081787703,0.4739117016852373,0.2834700375295976,0.7392944806240609,0.13595124559594401,0.3135948444476075,0.46040470035041,0.4757587048271072,-0.1019334559510815,-0.1656211141575496,0.7567456051562125,0.08391202837201607,-0.3556282340697897,-0.3505541709736777,0.4471040365761514,730.5128205128206,791.3553113553114,805.054945054945,768.3882783882782,942.4542124542123,-0.319153,0.091187,0.9650270000000001,5.218811,-5.375824,1.039276,66.0,64.0,2.0
712.9578754578754,51.66771832515541,,,,,,,24.908150729995022,24.975842209481026,0.0724695246433366,0.034936356813505334,707.6923076923077,57.02307692307691,0.08057608695652171,76.9230769230769,2.976190476190476,43.45238095238096,9.882352941176473,85.9375,,,0.029844296414557037,0.008589241755709194,0.002063975941206104,3.4746136228753595,0.7369414412057109,0.21209306161525585,-4.757244817463052,2021-10-14 14:33:35,2021-10-14 14:33:35.266,1.241825719581371,0.5536420866127189,1.2587842944318992,0.8547735147187496,1.144363960917586,0.1954371584907172,0.5042127878029826,0.2508891606080264,0.7418012562333024,-0.01636005036559525,0.3616542172316478,0.4600672091882252,0.481430249050703,-0.1391263805751435,-0.0917045234988526,0.7515253942339769,0.1587735402058823,-0.4305883103646106,-0.4241840067363428,0.5165301081006443,512.9304029304029,790.952380952381,798.2051282051282,767.9853479853481,569.3406593406594,-0.312988,0.090698,0.9560549999999999,3.72345,-4.747772,-0.32150300000000004,62.0,66.0,-4.0
713.4500230308612,51.592715988844965,,,,,,,25.30205350839416,25.37792957414501,0.07231440790998933,0.0354643670777479,707.6923076923077,57.02307692307691,0.08057608695652171,76.9230769230769,3.5928143712574854,44.31137724550898,10.4375,85.9375,,,0.029463805482693863,0.00815346770759175,0.00197756571240945,3.613653299351381,0.7441324753234033,0.20592248721175568,-4.809311956628614,2021-10-14 14:33:36,2021-10-14 14:33:36.267,1.3524869200434309,0.6395811175569575,1.3757712638651851,0.6808485653109487,1.183704266910527,0.2924481513005576,0.5907671580236632,0.5997158598104572,0.6751762460226655,0.1461270026524291,0.1901065030093291,0.4430004095656889,0.5487379160363276,-0.2237457312817847,-0.06142653716907288,0.8880221785346163,0.1989977723593035,-0.5574579017657861,-0.3306654488637391,0.4344288833269533,534.6886446886447,788.1318681318681,804.6520146520148,789.7435897435898,1127.802197802198,-0.316101,0.09021,0.9573360000000001,4.09729,-5.787048,1.07666,46.0,55.00000000000001,-9.000000000000009
713.7724550898203,51.53128423963032,,,,,,,25.30205350839416,25.374354006808648,0.07219567506726733,0.035448346777699875,707.6923076923077,57.02307692307691,0.08057608695652171,76.9230769230769,3.5928143712574854,44.31137724550898,11.133333333333333,85.9375,,,0.029617521136373167,0.007916493336726997,0.0019186533819743913,3.74124247651022,0.7507102243419934,0.20065799772546306,-4.83880693171745,2021-10-14 14:33:37,2021-10-14 14:33:37.266,1.3524869200434309,0.8037007665848158,1.408369350686952,0.921025922927076,1.183704266910527,0.5694320264030858,0.5690399743998322,0.5706965335571276,0.6751762460226655,0.3376882676157361,0.1263488106889485,0.5032933567444169,0.5487379160363276,-0.2287423478163346,-0.06506044189107513,0.8461956882165841,0.1989977723593035,-0.6063226839111715,-0.2628814959992806,0.5464092507689466,974.6886446886447,781.2820512820513,784.1025641025641,812.3076923076924,1006.9230769230768,-0.314087,0.09411599999999999,0.952515,3.237457,-5.652466,1.368256,38.0,47.0,-9.0
714.9239981575312,50.973978398808896,,,,,,,25.23857787346158,25.30534049560372,0.07129985639057672,0.035302462833119705,707.6923076923077,57.02307692307691,0.08057608695652171,76.9230769230769,3.5928143712574854,43.712574850299404,11.133333333333333,85.9375,,,0.02869289788170188,0.007407865053557798,0.0017658600830128646,3.8733019127989445,0.7577358527021574,0.19563046459102346,-4.90521299811657,2021-10-14 14:33:38,2021-10-14 14:33:38.276,1.3524869200434309,1.093226956240595,1.373396386716513,1.498556534070462,1.183704266910527,0.399234936976455,0.5079828783842351,0.7623673380259464,0.6751762460226655,0.2870549652628192,0.16890189951132506,0.8178776050838237,0.5487379160363276,-0.2082101537107111,-0.02036660923533077,0.8635881839703022,0.1989977723593035,-0.6133245704617081,-0.2886297167022336,0.7752897273178976,830.0366300366301,807.8754578754579,812.7106227106227,751.8681318681319,748.2417582417582,-0.321716,0.097107,0.9568479999999999,3.947754,-5.787048,1.001892,37.0,44.0,-7.0
715.5228005527406,50.47343446527145,,,,,,,25.203244553780014,25.275229392779213,0.07054063745597035,0.03522353799810507,707.6923076923077,57.02307692307691,0.08057608695652171,76.9230769230769,3.5928143712574854,43.113772455089816,11.133333333333333,85.9375,,,0.027562960888808517,0.006981401959597046,0.0016218896604721438,3.9480552829247775,0.7621182449589615,0.19303636609525207,-4.964505528565816,2021-10-14 14:33:39,2021-10-14 14:33:39.266,1.3524869200434309,1.049964246062832,1.031599971949128,1.266268021025015,1.183704266910527,0.2748390376933735,0.3105128393958146,0.4828059669361879,0.6751762460226655,0.0032766378942978326,0.2563248202364752,0.7750228854597028,0.5487379160363276,-0.2585162131915873,-0.03137854925570685,0.8433781060563866,0.1989977723593035,-0.5310910851985211,-0.2664686409588387,0.7529448792508421,725.6776556776558,799.0109890109891,798.6080586080586,791.7582417582418,1127.399267399268,-0.292419,0.105652,0.9618530000000001,5.039368,-6.101074,0.276642,38.0,43.0,-5.0
716.8674698795181,50.459006010211255,,,,,,,25.972220024821745,26.03276846933168,0.07038819325794174,0.03623015566487739,707.6923076923077,51.32076923076927,0.07251847826086961,76.9230769230769,4.216867469879518,43.97590361445783,11.066666666666665,85.9375,,,0.026465317309205625,0.006622841522718362,0.0014682721858764653,3.996066826968685,0.7658579468340642,0.1916529377500487,-5.017230768088341,2021-10-14 14:33:40,2021-10-14 14:33:40.266,1.3524869200434309,0.4795847079346731,0.7619643319639856,0.5586278055620556,1.183704266910527,0.2173536411634226,0.326622846558883,0.3778970868266198,0.6751762460226655,0.2157622985573328,0.2285158831284235,0.7050683697730087,0.5487379160363276,-0.2336213059735356,0.09081869533165324,0.8683091281853881,0.1989977723593035,-0.6545769876065417,-0.3712453315607218,0.7654500679246475,950.10989010989,799.0109890109891,797.8021978021977,780.4761904761905,893.2967032967032,-0.293152,0.110901,0.964111,3.798218,-4.538422,0.4187010000000001,44.0,45.0,-1.0
718.6013986013986,50.656483534223526,,,,,,,26.044357512396264,26.10361317359195,0.07049316023154889,0.0362431211003568,707.6923076923077,45.61846153846162,0.0644608695652175,76.9230769230769,4.242424242424243,44.24242424242424,11.0,85.9375,,,0.024617358253376288,0.006160621666779809,0.0013012207566883234,3.9959211236946346,0.7673931311868915,0.19204411384310774,-5.089577586596995,2021-10-14 14:33:41,2021-10-14 14:33:41.266,1.3524869200434309,0.5485638176486632,0.7722417698380161,1.1404919454316593,1.183704266910527,0.3323998563511337,0.3749513634366361,1.1260162470984771,0.6751762460226655,0.2977630047160303,0.2262732654762474,0.9392051577802448,0.5487379160363276,-0.02513582599589397,0.043289902310062085,0.9202571412878346,0.1989977723593035,-0.576643998191566,-0.2704894904933287,0.6788485213128669,768.7912087912088,807.0695970695973,805.8608058608058,768.7912087912088,646.3003663003664,-0.324829,0.098389,0.9620360000000001,4.478607,-6.325378,0.037384,46.0,49.0,-3.0
719.5551436515292,50.71907114305396,,,,,,,26.35599921533416,26.431226002411822,0.07048670500174553,0.03662818541131576,715.3846153846154,57.02307692307691,0.07970967741935482,76.9230769230769,4.819277108433735,45.180722891566276,11.066666666666665,85.9375,,,0.022827204318909916,0.005755934918162715,0.001150082117215046,3.9658551813849066,0.7677339783305424,0.19358598416154066,-5.157523796802954,2021-10-14 14:33:42,2021-10-14 14:33:42.268,1.3524869200434309,0.6928236772400596,0.7525007162837399,1.40300615200822,1.183704266910527,0.3433227122154724,0.4343726140994609,1.297009711958292,0.6751762460226655,0.1967027056941848,0.056102212785704465,0.931811494200685,0.5487379160363276,0.056868891830168085,0.00488619042362045,0.9242464479302579,0.1989977723593035,-0.4969448127106934,-0.3365283787840676,0.4105077337941703,875.5677655677656,754.6886446886447,761.5384615384613,864.2857142857142,1184.212454212454,-0.312195,0.105896,0.957092,4.553375,-5.6300349999999995,0.24673499999999998,50.0,50.0,0.0
720.0648748841519,50.71321410903134,,,,,,,26.35599921533416,26.431226002411822,0.07042867369025654,0.03660225645581512,715.3846153846154,57.02307692307691,0.07970967741935482,75.0,4.819277108433735,45.180722891566276,11.857142857142858,85.9375,,,0.02097036337367702,0.005360067773090264,0.001007877223094171,3.9123317579969483,0.7670687992090746,0.19606435411341536,-5.228778659746106,2021-10-14 14:33:43,2021-10-14 14:33:43.266,1.3524869200434309,1.790426955778343,1.5755617323395732,2.000043964113141,1.183704266910527,0.2703848587622947,0.3922529112682772,0.3947052188252644,0.6751762460226655,0.1429359149197661,0.2467819304674789,0.3592781323729322,0.5487379160363276,-0.1287366120716009,0.025438748068469567,0.8631682034893288,0.1989977723593035,-0.6154800336659084,-0.4620812025107837,0.4741433587999737,759.1208791208792,881.2087912087912,854.2124542124542,707.948717948718,965.4212454212454,-0.302246,0.098938,0.965454,3.8804629999999998,-5.405730999999999,0.620575,56.00000000000001,52.0,4.000000000000006
721.0722610722612,51.01719655020771,,,,,,,26.579148732638334,26.647101636854664,0.07075185013266666,0.036860589662836514,715.3846153846154,57.02307692307691,0.07970967741935482,76.9230769230769,4.848484848484849,46.06060606060606,12.692307692307693,101.5625,,,0.01910256066005676,0.005001111398383849,0.0008676219307520295,3.8196630985324402,0.7649808082962855,0.20027441912094293,-5.298095111571733,2021-10-14 14:33:44,2021-10-14 14:33:44.266,1.998617534643207,1.9759200932069318,1.822412339696199,2.014205463380664,1.2168156792381,0.1164252272397915,0.2263980508363198,0.4521120015396984,0.8549949044576762,0.2161667010479843,0.2672947609072199,0.4059998620947311,0.6043673186357418,-0.02381668627831206,-0.01125711228589049,0.5691536428707228,0.1888094548346648,-0.4382616171767691,-0.3256294067376838,0.2268704740632823,849.3772893772895,813.1135531135533,826.007326007326,743.4065934065933,615.6776556776557,-0.29834,0.107117,0.967041,6.071167,-16.269531,2.945862,62.0,55.00000000000001,6.999999999999992
722.5641025641024,51.18126431146403,,,,,,,26.524794588365282,26.592553434254214,0.07083283563332493,0.036709261495608436,715.3846153846154,57.02307692307691,0.07970967741935482,76.9230769230769,4.848484848484849,46.06060606060606,12.692307692307693,101.5625,,,0.017748934931450078,0.004757695834344634,0.0007736719625235524,3.7305736956374735,0.7624013801959797,0.20436572023427133,-5.347991796352741,2021-10-14 14:33:45,2021-10-14 14:33:45.266,1.884586421848422,1.392015412228926,1.6316379275193968,1.6381010491805847,1.1777086512970771,0.3368796768111225,1.111741356034808,0.6125340403832853,0.9632596980054022,0.3917949695171635,0.4928543764659468,0.9090623036746251,0.781933320634367,0.1008100561409425,0.008944205095841243,0.49559883538092403,0.282844461080511,-0.4060151276934362,-0.1431134591502638,0.17130667325389298,788.5347985347986,799.8168498168499,795.3846153846154,794.5787545787546,1138.278388278388,-0.23199499999999998,0.12548800000000002,0.9782709999999999,3.8505550000000004,-4.605713,0.844879,67.0,57.99999999999999,9.000000000000009
723.4032634032634,50.928395645330326,,,,,,,26.497575705271654,26.568070182287695,0.07040111404216894,0.03662905193517285,715.3846153846154,57.02307692307691,0.07970967741935482,76.9230769230769,4.848484848484849,46.06060606060606,12.692307692307693,101.5625,,,0.01648584692485826,0.004568019794505585,0.0006867191597391891,3.608970115385105,0.7582981901469542,0.21011484326631447,-5.388675473339746,2021-10-14 14:33:46,2021-10-14 14:33:46.266,1.157461037263627,1.008942107731555,1.395009108020889,0.6284048386912344,0.5774260474431476,0.3169082716072879,0.9142706637699664,0.6570224050362774,0.6984124379958279,0.3874574124782982,0.4370982940572365,0.6858261764920629,0.8364386544608554,-0.05749185146423973,-0.06682280445111312,0.6613865016441617,0.4433967000341399,-0.6048565900672231,-0.2578540812157117,0.6722976968561869,800.6227106227108,794.5787545787546,793.7728937728937,747.8388278388278,867.9120879120877,-0.24084499999999998,0.11914100000000001,0.9746090000000001,4.276733,-4.9496459999999995,0.4187010000000001,71.0,61.0,10.0
724.202626641651,50.66977188780914,,,,,,,26.680971707935058,26.759802480832285,0.06996629123368464,0.0368418598972264,715.3846153846154,57.02307692307691,0.07970967741935482,69.23076923076928,4.878048780487805,46.34146341463415,12.615384615384615,101.5625,,,0.015765633613862576,0.004494938566738547,0.0006375526974612606,3.507419151515092,0.7544042207543896,0.21508812838309085,-5.404803278173405,2021-10-14 14:33:47,2021-10-14 14:33:47.266,1.211501632435027,0.4054370369595202,0.8292767617458672,0.8310829349540422,0.5783311610726944,-0.0308919754120568,0.2486400511101413,0.4884519734941745,0.7883698088820501,0.04281343311396636,0.1113089875586054,0.6814295296252293,0.7680519532170711,-0.1977246242802511,-0.1458135301953903,0.7841102720156643,0.4777615950738923,-0.6539097316971427,-0.4898063427717144,0.6168195890075817,820.7692307692308,793.3699633699632,786.5201465201468,798.2051282051282,768.7912087912088,-0.23284899999999997,0.129272,0.9743040000000001,3.334656,-5.831909,1.958923,74.0,62.0,12.0
724.7185741088181,50.53721092520322,,,,,,,26.701372606831093,26.777632947584106,0.06973356656043833,0.036843781242485205,715.3846153846154,57.02307692307691,0.07970967741935482,69.23076923076928,4.878048780487805,46.34146341463415,12.615384615384615,101.5625,,,0.015252068466072532,0.004482122681086489,0.0006036877023652492,3.4028672464572858,0.7499340800935737,0.2203829963905667,-5.407658532026538,2021-10-14 14:33:48,2021-10-14 14:33:48.279,1.305480997582986,0.5029015564436731,0.9485073000316512,0.8191885050477641,0.4499264460859056,0.009463776762855524,0.2153386414207895,0.1547346727367576,0.7699763967044905,-0.1220208153394409,0.01776237032083176,0.5762623582285219,0.3767528686672115,-0.3362028107333038,-0.1386853177906752,0.6354648592785934,0.2699063909073048,-0.613341149388625,-0.6411947792097351,0.4075527824576322,720.0366300366301,799.8168498168499,805.054945054945,781.2820512820513,1026.263736263736,-0.22479200000000002,0.12341300000000001,0.9741209999999999,3.72345,-4.80011,-0.097198,72.0,57.99999999999999,14.000000000000007
726.3133208255159,51.15988500653746,,,,,,,26.776042918796378,26.851507030860443,0.0704377622434213,0.03686569163892405,719.2307692307692,51.32076923076927,0.07135508021390377,69.23076923076928,4.878048780487805,46.34146341463415,12.615384615384615,101.5625,,,0.014710533942498522,0.004464881948345528,0.0005752630081862269,3.2947195721377462,0.7448115590204235,0.2260622012625979,-5.411512504343508,2021-10-14 14:33:49,2021-10-14 14:33:49.266,1.401404043961699,0.5334958872505997,0.9299320118413223,1.062327349082891,0.6629064089520779,0.1194335965212783,0.2746381826469217,0.8164670771878292,0.6349498562051711,0.1450896619361207,0.2796738505957955,0.8294597333409358,0.3068326635260223,-0.1393600725783063,-0.04321027614485312,0.6261111602877889,0.09461600889516647,-0.5714916972955999,-0.4825199666870241,0.1715182826928224,787.3260073260074,803.040293040293,770.4029304029305,796.1904761904763,900.1465201465203,-0.202271,0.141052,0.987427,4.912262,-9.293671,-7.7085880000000015,59.0,52.0,7.0
727.0637898686679,52.00780538060815,,,,,,,26.728549583440326,26.794197106174288,0.0715312825440014,0.036762317083991226,719.2307692307692,51.32076923076927,0.07135508021390377,69.23076923076928,4.878048780487805,46.34146341463415,12.615384615384615,101.5625,,,0.014428464111627081,0.004567430399761433,0.000564707444749162,3.158989376692136,0.7376288390296575,0.2335015256689621,-5.388804507975683,2021-10-14 14:33:50,2021-10-14 14:33:50.266,1.3498727322373751,1.704636401356656,1.636743749464133,1.494232426217041,0.7846652261354387,0.161089165374073,0.8408383280258374,0.8089506471760708,0.5984117179879473,0.394918404589379,0.7891751513875941,0.8294597333409358,0.3213090316305356,-0.03888711779298317,-0.04349082448452925,0.5247206326085198,0.08726671940668831,-0.4712405601435217,-0.4061605717028316,0.1995825901989938,897.7289377289377,855.8241758241759,848.974358974359,708.3516483516484,530.6593406593406,-0.124878,0.21026599999999998,0.9908450000000001,0.456085,-6.878661999999999,-6.9010929999999995,41.0,44.0,-3.0
728.0487804878047,52.86810735486157,,,,,,,26.70816944354723,26.76834249617125,0.07261616085592376,0.036684587845408255,723.0769230769231,57.02307692307691,0.07886170212765957,69.23076923076928,4.878048780487805,46.34146341463415,13.666666666666664,101.5625,,,0.014280677939456981,0.004681520914389839,0.0005668453215195132,3.0504355743796223,0.7312532969468332,0.2397209444738235,-5.364132240140468,2021-10-14 14:33:51,2021-10-14 14:33:51.270,1.3498727322373751,1.8399663009435097,1.7770251058411282,1.7259447110617099,0.7846652261354387,0.1987535301718907,0.9525125559628952,0.5553274519182138,0.5984117179879473,0.3759584754950129,0.7795790500831224,0.6830666888062019,0.3213090316305356,-0.09034535964096167,-0.1053945885143397,0.5798301802129759,0.08726671940668831,-0.546140190000841,-0.3995148311265414,0.3306663046411589,794.981684981685,836.0805860805863,817.1428571428571,765.5677655677656,769.5970695970697,-0.18335,0.15618900000000002,0.984375,1.211243,-1.525269,3.192596,40.0,48.0,-8.0
728.8815478999527,52.93691724033965,,,,,,,27.41045762534116,27.48847843750745,0.07262759963242456,0.03760618951641174,723.0769230769231,57.02307692307691,0.07886170212765957,69.23076923076928,5.521472392638037,47.23926380368097,13.583333333333336,132.8125,,,0.014128196540638032,0.004839056763526576,0.0005804635925094736,2.919617857580529,0.7227543050330268,0.24755099478394385,-5.331035460814756,2021-10-14 14:33:52,2021-10-14 14:33:52.266,1.3498727322373751,1.205612793623941,1.4879154294257633,1.582148107381109,0.7846652261354387,0.6007696577643641,0.6045725423338693,0.5145601645675298,0.5984117179879473,0.6015837627889998,-0.03604705646697411,0.6379365293954509,0.3213090316305356,-0.1652494320341163,-0.1067245880736962,0.5608087670176937,0.08726671940668831,-0.4943341749363,-0.2662177193457049,0.3768840570338422,787.7289377289377,814.7252747252749,794.981684981685,793.3699633699632,928.3516483516484,-0.213135,0.145081,0.9802860000000001,2.64679,-6.587067,3.514099,41.0,52.0,-11.0
729.8311444652907,52.923261354618425,,,,,,,27.30631306794813,27.37998835081943,0.07251439152188079,0.037414562635517616,723.0769230769231,57.02307692307691,0.07886170212765957,71.15384615384629,5.487804878048781,46.95121951219512,13.666666666666664,132.8125,,,0.013620431180509922,0.004827729425950873,0.0005826953935438418,2.821291331551216,0.7157024981170895,0.2536790476450296,-5.333379019995248,2021-10-14 14:33:53,2021-10-14 14:33:53.280,1.332768668891481,1.1433361721281108,1.2279267894058679,1.017814633398828,0.7158226673143091,0.5215798315488225,0.3888410303118345,0.7769053296825835,0.7366893045585172,0.6331425230917411,0.276150721073518,0.7113678067115462,0.9509248864612708,-0.05431489952838906,-0.08877195549583873,0.6589304274035886,0.4899503757107627,-0.5921331735089528,-0.4058140386727825,0.4333826200331437,829.2307692307692,815.5311355311355,802.6373626373628,788.1318681318681,795.7875457875458,-0.21728499999999998,0.138855,0.9768680000000001,3.5290529999999998,-4.755249,1.121521,48.0,57.99999999999999,-9.999999999999991
730.6748466257669,52.78418058716198,,,,,,,27.317020195721177,27.399695829850078,0.07224031432164066,0.037386014205730914,723.0769230769231,57.02307692307691,0.07886170212765957,73.0769230769232,5.521472392638037,47.23926380368097,13.583333333333336,132.8125,,,0.013197794288081923,0.0048333408851776154,0.0005934145073724041,2.730573862182065,0.7086235379858115,0.2595145100449815,-5.3322173557743975,2021-10-14 14:33:54,2021-10-14 14:33:54.266,1.4855735464309632,0.8485046605097596,0.9609235068494776,0.7187840788448983,0.7687342729113752,0.1109383581551717,0.3978909029602868,0.5213727829965319,0.8829882417575762,0.2427920205701937,0.2698140219749102,0.6125412145713467,0.9310872773367926,-0.1159661009278149,-0.1542524572024919,0.825866834990065,0.6312083961507046,-0.5276287706939596,-0.407366229434996,0.5938322074007819,844.1391941391942,790.1465201465203,787.7289377289377,780.0732600732601,826.8131868131868,-0.218018,0.139282,0.9862059999999999,4.082336,-6.6020199999999996,1.585083,55.00000000000001,65.0,-9.999999999999991
731.0541310541311,52.863804801839684,,,,,,,27.448627922573056,27.53276959276074,0.07231175169698259,0.03754664224794678,726.9230769230769,51.32076923076927,0.07060000000000005,75.0,5.5555555555555545,48.148148148148145,13.5,171.875,,,0.012897207520340518,0.0049070460746705674,0.0006233258134407255,2.6283037338723925,0.6998861453515275,0.2662881524428515,-5.317083132338145,2021-10-14 14:33:55,2021-10-14 14:33:55.265,1.5672862233728602,0.7008208341904943,1.008913673219018,0.7393314032587763,0.8865514944088604,0.2761837552731483,0.3264148879874816,0.3006961454174071,0.7530657026254837,0.1967658717705693,0.3591339844335437,0.3727599033453942,0.8192652460475659,-0.1277086793129056,-0.1426015508963128,0.8169291555941179,0.4782049782625201,-0.3476175920465638,-0.5532359276079495,0.5185278803766419,776.4468864468864,805.8608058608058,819.5604395604396,805.8608058608058,811.9047619047618,-0.211975,0.142822,0.987793,3.521576,-3.701019,1.958923,57.99999999999999,69.0,-11.000000000000007
732.0906087777254,53.09883723961197,,,,,,,27.636061904657684,27.716803722254003,0.07253041714093841,0.03774951020174668,730.7692307692308,57.02307692307691,0.07803157894736841,76.923076923077,6.1349693251533735,47.852760736196316,13.583333333333336,171.875,,,0.012720648447483746,0.0049714102262541785,0.0006534702665761773,2.55876056663069,0.6933922967753879,0.2709875655495306,-5.304051731385116,2021-10-14 14:33:56,2021-10-14 14:33:56.266,1.3485087491851009,1.5522573259546688,1.468951175021919,0.9371016192894444,0.5604570656872427,0.1520041459327946,0.6867526158870633,0.4139891729374588,0.7351354704436336,0.4729496012507636,0.5877047931970307,0.3226712587473711,0.7300662296105108,0.05351438265178417,-0.1858659984513706,0.7410163825871033,0.5449491540948352,-0.3586238859243829,-0.4924687453628495,0.5844314343920067,406.1538461538462,825.2014652014653,806.6666666666667,809.4871794871796,911.0256410256412,-0.6286619999999999,0.057495000000000004,0.80188,5.076752,-9.241333000000001,-2.4748229999999998,56.99999999999999,68.0,-11.000000000000007
732.2793770646533,53.09377284401197,,,,,,,27.95799527144637,28.044039770051718,0.07250480418667357,0.03817941095585155,730.7692307692308,57.02307692307691,0.07803157894736841,76.923076923077,6.7484662576687136,48.466257668711656,13.583333333333336,171.875,,,0.012712756349691795,0.005086908987559171,0.0006943965100972157,2.4991122075867334,0.6873966603239541,0.2750563413027934,-5.281084904483164,2021-10-14 14:33:57,2021-10-14 14:33:57.276,1.3485087491851009,2.030959726676671,1.835858743659499,0.9371016192894444,0.5604570656872427,0.8427328181150311,0.8974022426974929,0.4139891729374588,0.7351354704436336,0.543497786075086,0.7640244771865319,0.3226712587473711,0.7300662296105108,0.09485096290887744,0.03317529966060197,0.7410163825871033,0.5449491540948352,-0.3126447721101858,-0.3076037858997736,0.5844314343920067,817.1428571428571,770.4029304029305,761.9413919413921,754.2857142857142,877.9853479853481,-0.165588,0.101135,1.001526,7.588959,-15.088196,-8.000183,53.0,66.0,-13.0
732.716049382716,53.1095043120077,,,,,,,27.93965028800525,28.024202903908378,0.072483064014703,0.03813162044361289,738.4615384615386,57.02307692307691,0.07721874999999997,76.923076923077,6.790123456790122,48.148148148148145,13.5,171.875,,,0.01290593112821353,0.005287799810907821,0.0007577352234133058,2.4406996463048425,0.6809990856394739,0.2790179802215685,-5.24235303439069,2021-10-14 14:33:58,2021-10-14 14:33:58.266,1.3485087491851009,1.823715853925422,1.9219443235302642,1.058844601700933,0.5604570656872427,0.9091869491462216,0.8132879401517942,0.41293925377292295,0.7351354704436336,0.2030283818286759,0.6250110800286103,0.6228218300886353,0.7300662296105108,-0.102609985450754,-0.042301949191871864,0.6549466826667797,0.5449491540948352,-0.5402640186922436,-0.3583570492174736,0.3314703685697156,693.040293040293,796.5934065934067,816.3369963369963,797.3992673992674,692.6373626373628,-0.138672,0.125183,0.9889530000000001,5.637512,-10.856323,-1.300964,54.0,60.0,-6.0
733.2704105710243,52.81113126919713,,,,,,,27.9645267503981,28.04925713418767,0.07202135870731671,0.03813671784276842,738.4615384615386,57.02307692307691,0.07721874999999997,76.923076923077,6.7484662576687136,49.079754601226995,12.538461538461537,171.875,,,0.01322052283420615,0.0054889769299883385,0.0008165549078380531,2.4085586445039477,0.6770708704991031,0.2811103944029349,-5.205013392376699,2021-10-14 14:33:59,2021-10-14 14:33:59.266,2.129837440325311,1.2649842513549658,1.739225783031837,1.2442270915553322,0.9134288408107236,0.6390743252701324,0.7828041514689394,0.8468223864332903,0.8624702519187555,0.2231944896697088,0.2578824739552298,0.8494204621012502,1.0121042372406,-0.1472465913996156,-0.2248199272261561,0.7865962787790084,0.4059767872737591,-0.7089688111267857,-0.7206613696859836,0.2690632242512304,741.7948717948718,788.9377289377289,805.8608058608058,760.3296703296703,782.0879120879123,-0.167664,0.160339,0.979187,-2.370148,-4.702911,4.42627,56.00000000000001,57.99999999999999,-1.9999999999999856
