HRV_MeanNN,HRV_SDNN,HRV_SDANN1,HRV_SDNNI1,HRV_SDANN2,HRV_SDNNI2,HRV_SDANN5,HRV_SDNNI5,HRV_RMSSD,HRV_SDSD,HRV_CVNN,HRV_CVSD,HRV_MedianNN,HRV_MadNN,HRV_MCVNN,HRV_IQRNN,HRV_pNN50,HRV_pNN20,HRV_HTI,HRV_TINN,HRV_ULF,HRV_VLF,HRV_LF,HRV_HF,HRV_VHF,HRV_LFHF,HRV_LFn,HRV_HFn,HRV_LnHF,Time,TimeStamp,Delta_TP9,Delta_AF7,Delta_AF8,Delta_TP10,Theta_TP9,Theta_AF7,Theta_AF8,Theta_TP10,Alpha_TP9,Alpha_AF7,Alpha_AF8,Alpha_TP10,Beta_TP9,Beta_AF7,Beta_AF8,Beta_TP10,Gamma_TP9,Gamma_AF7,Gamma_AF8,Gamma_TP10,RAW_TP9,RAW_AF7,RAW_AF8,RAW_TP10,AUX_RIGHT,Accelerometer_X,Accelerometer_Y,Accelerometer_Z,Gyro_X,Gyro_Y,Gyro_Z,Attention,Meditation,A_M
700.7239819004524,34.768004808217945,,,,,,,22.03695201128529,22.102393722626935,0.04961726115598713,0.031448833749800134,700.0,22.809230769230727,0.03258461538461533,38.46153846153845,3.5294117647058822,37.058823529411775,8.095238095238095,132.8125,,,0.027985831307891645,0.02764759735175809,0.0014395855584859124,1.0122337558605994,0.4903513804427524,0.4844250427371458,-3.5882164498433435,2021-10-14 14:23:00,2021-10-14 14:23:00.420,1.842715487151435,0.824050776520495,1.191753720629217,1.7498081843521949,1.276345839152724,0.3018010347114168,0.7621573467183336,1.0092598560482209,0.8774349751267995,-0.1360992027321645,0.4280069836791195,0.8234968047951354,0.6111357853738588,0.1183215621865452,0.3632440002463214,0.7717163624479966,0.5838438978812684,0.01217732345071865,0.2138603375678637,0.9708654257762914,809.4871794871796,786.1172161172162,803.4432234432236,792.9670329670329,529.4505494505495,-0.8487549999999999,0.117676,0.555908,4.852448000000001,-3.678589,-1.136475,29.0,70.0,-41.0
700.0452488687782,34.8610315765643,,,,,,,22.368116179213963,22.43231310331093,0.04979825465981973,0.03195238624268817,700.0,22.809230769230727,0.03258461538461533,30.76923076923072,4.117647058823529,37.647058823529406,8.095238095238095,140.625,,,0.027393068684732763,0.027078584457828188,0.0014792034462878954,1.0116137616940186,0.4895915872392966,0.4839708649469546,-3.609012104910372,2021-10-14 14:23:01,2021-10-14 14:23:01.420,1.315228448137234,0.6908026136457412,0.96111061020135,1.7498081843521949,1.042353476494595,0.3796357873253668,0.4409126370646179,1.0092598560482209,0.918777529946726,0.1913868736286732,0.2971043587807704,0.8234968047951354,0.7090189522482387,0.2512130358384314,0.3598388891494493,0.7717163624479966,0.7354131987912547,-0.1850020903489126,0.2404752908132675,0.9708654257762914,794.5787545787546,784.9084249084249,798.6080586080586,837.6923076923077,1070.989010989011,-0.833252,0.129944,0.5486449999999999,3.596344,-4.695435,0.36636399999999997,34.0,61.0,-27.0
699.5927601809954,35.35731234447607,,,,,,,22.24253979788461,22.30747182382764,0.05053984883338214,0.03179355342689672,700.0,22.809230769230727,0.03258461538461533,30.76923076923072,4.117647058823529,37.647058823529406,8.095238095238095,132.8125,,,0.027239988380262804,0.026724431985938588,0.0015158366415590865,1.0192915753867278,0.4909852594311617,0.4816926493725584,-3.6221770763310017,2021-10-14 14:23:02,2021-10-14 14:23:02.420,1.127974880644115,0.6649122407697735,0.8323186572260791,1.88158802178711,0.7971966771431642,0.4100880862638855,0.1916496274395318,0.6283125292340888,0.9600828541485916,0.2250195497782353,0.3832592720372321,0.9831450865041098,0.8756028401620891,0.2226107878104396,0.5021030459569387,1.061185540414078,0.773036331255486,-0.1958100678453905,0.2539566683512476,1.009690451470522,787.3260073260074,790.952380952381,810.2930402930403,751.0622710622711,623.7362637362637,-0.8068850000000001,0.137878,0.571228,4.059906,-7.439423,2.026215,36.0,53.0,-17.0
699.3702204228517,35.412411869770274,,,,,,,22.247539432263398,22.313078867094866,0.050634715113204685,0.031810818909063836,700.0,22.809230769230727,0.03258461538461533,34.61538461538464,4.093567251461988,38.01169590643275,8.142857142857142,132.8125,,,0.02754799202277452,0.02666146183677499,0.0015684116590716835,1.0332513720150451,0.4938875262908321,0.477993583814608,-3.624536133147617,2021-10-14 14:23:03,2021-10-14 14:23:03.420,0.5935565551472948,0.8531277496287457,1.136995494184752,1.8589527162240351,0.4036940882436612,0.5531124322872546,0.565696443639855,0.4928393783679902,0.8701667801231461,0.3594908253219064,0.5852531083489212,0.946438617944528,0.7411795151733616,0.3576589197612781,0.5921898637564822,1.0458263726530042,0.6918044933707915,-0.0517922190991495,0.3467412409635564,1.016633067848596,774.0293040293042,779.2673992673992,809.0842490842491,790.1465201465203,772.4175824175826,-0.802185,0.13385,0.59436,3.9926150000000002,-5.278625,0.740204,33.0,55.00000000000001,-22.00000000000001
699.5022624434387,35.53395212881776,,,,,,,22.500773185599453,22.56745571697589,0.050798909505587214,0.0321668340385373,700.0,28.51153846153845,0.040730769230769216,36.53846153846155,4.117647058823529,38.82352941176471,8.095238095238095,132.8125,,,0.02827678842114645,0.02672848502074648,0.0016409704570634464,1.0579270916102501,0.4991820547110875,0.4718492027189628,-3.62202542755138,2021-10-14 14:23:04,2021-10-14 14:23:04.420,0.1409384251483538,0.7722175250563009,1.042069429796696,0.7876018609978526,0.1924387908929553,0.3659200688340906,-0.1096041341287915,-0.038240099294495115,0.4930067426600419,0.3568997970742236,-0.1339266666912114,0.08040965824787702,0.9728451870421022,0.1792498253472311,0.5311849544530151,1.058443676356263,0.8619576115004297,-0.1505656563164739,0.3019310626173242,1.097331419522212,808.2783882783882,762.7472527472528,799.8168498168499,761.5384615384613,765.9706959706958,-0.802124,0.126404,0.600586,4.022522,-5.17395,-0.747681,28.000000000000004,55.00000000000001,-27.000000000000004
699.8190045248867,35.77756659322383,,,,,,,22.694448415106635,22.759647856969558,0.051124028301451366,0.03242902560286155,700.0,34.21384615384618,0.04887692307692311,42.307692307692385,4.117647058823529,39.411764705882355,8.095238095238095,132.8125,,,0.02904593244591137,0.02685658287546456,0.001700122459156816,1.0815200347936649,0.5042465686480709,0.4662387680541419,-3.6172443158065115,2021-10-14 14:23:05,2021-10-14 14:23:05.420,-0.009233356244911846,0.06405808682708072,0.01332566534626356,0.7987836658696339,0.2915776040455288,-0.2264329876372949,-0.1860621267472984,0.5393302421829919,0.612640557218555,0.2289322803624466,0.14801213006883202,0.5991737374448332,0.8023343778403776,0.1405039464953757,0.3386502797577171,0.9972693476099392,0.8262066875224108,-0.2625549851415624,0.2038811946349455,1.012996732254582,810.2930402930403,788.5347985347986,800.6227106227108,776.8498168498169,818.7545787545787,-0.816589,0.136353,0.579163,4.0898129999999995,-1.8766779999999998,2.736511,48.0,60.0,-12.0
700.0,35.89526837420852,,,,,,,22.901778083270564,22.969655544928965,0.05127895482029789,0.03271682583324366,700.0,34.21384615384618,0.04887692307692311,44.23076923076928,4.117647058823529,40.0,8.5,140.625,,,0.029845221550736555,0.02696958204966069,0.0017533377564614447,1.1066252897720392,0.5095811623744056,0.4604821226156665,-3.6130456388115064,2021-10-14 14:23:06,2021-10-14 14:23:06.420,0.6187358271987939,0.2879622318358997,0.07504338685888623,1.073027445767431,0.3399576159421493,-0.3570790993929149,-0.0693619146231432,0.8661624895121164,0.7733873600147076,0.2046334936374467,0.2239251404401662,0.6921985061274817,0.8395021870805504,0.1399067645444824,0.2946131432743146,0.8490378439441941,0.742351987645424,-0.4121405237422748,0.1641504198087239,0.9490526216811156,800.6227106227108,783.6996336996338,817.948717948718,796.9963369963368,720.8424908424909,-0.8220209999999999,0.147949,0.56189,3.925323,-5.981445,0.852356,56.00000000000001,63.0,-6.999999999999992
699.7285067873303,35.95271450817484,,,,,,,23.01615424707305,23.083424534462104,0.05138094869572323,0.032892977810418667,700.0,34.21384615384618,0.04887692307692311,46.15384615384619,4.117647058823529,40.588235294117645,8.5,132.8125,,,0.031229444988378006,0.02744120002945844,0.00183238262044,1.1380495370046806,0.5161633426856991,0.4535508568846913,-3.595709744228722,2021-10-14 14:23:07,2021-10-14 14:23:07.420,0.6665450988509019,0.4352521435344355,0.2978238816609781,1.254763346385732,0.3712777234336802,-0.3092875343506644,-0.1785076212029486,0.5972092022527002,0.8934665885549434,0.09957794348406927,0.2461598342193936,0.6788699214069174,1.058048994867319,0.1796371716227578,0.3093572347159234,1.145839619561531,0.9430283890738776,-0.4414381390548255,0.1062441127222457,1.0098282511250911,806.6666666666667,787.3260073260074,796.5934065934067,807.0695970695973,1252.710622710623,-0.8265379999999999,0.146851,0.552063,3.8356019999999997,-8.187103,1.218719,70.0,63.0,7.0
699.6832579185519,36.102975884596795,,,,,,,23.37090847116154,23.440361546924766,0.05159902781152359,0.033402126185906364,700.0,34.21384615384618,0.04887692307692311,46.15384615384619,4.705882352941177,40.588235294117645,8.947368421052632,140.625,,,0.03242679883549788,0.027935667056191774,0.00189445458228272,1.1607669424994334,0.5208545265109039,0.4487158510815,-3.5778510174876117,2021-10-14 14:23:08,2021-10-14 14:23:08.426,1.0591467214893722,0.3201347626563166,0.6263102823454627,1.148082454846217,0.682130764112908,0.3136852533310781,0.1726464692470593,0.5954068706201424,1.049242871255345,0.4250470532274989,0.28692031370264803,0.621995410547022,0.9812452946761048,0.1717459722403467,0.4712345632064924,1.2563968843667128,0.9723536253610996,-0.3215385489974957,0.1308934221382042,1.051489456788349,792.1611721611722,780.0732600732601,795.7875457875458,833.6630036630037,1033.113553113553,-0.822693,0.153381,0.559387,4.344025,-5.555267,1.532745,69.0,61.0,8.0
700.0452488687782,36.71975061608681,,,,,,,23.77932697918357,23.848901464991986,0.052453395941795516,0.03396827136190013,700.0,34.21384615384618,0.04887692307692311,46.15384615384619,5.294117647058823,40.588235294117645,8.947368421052632,140.625,,,0.0339091051832656,0.028642017922353324,0.0019655524167030173,1.183893721287062,0.5255866783082072,0.4439475172964168,-3.5528804811890256,2021-10-14 14:23:09,2021-10-14 14:23:09.420,0.9525071427971568,0.2149287400765776,0.4315760055054934,0.3343968251279041,0.6470098511608545,0.1345053489879959,0.031246018724576788,0.5822097109477619,0.9593305441976748,0.3349583714770997,0.190991875535153,0.6447289830863613,0.9851944206040196,0.16302853476833898,0.4589904367961817,1.1466696635356408,0.7844951783847021,-0.2150153045130016,0.0997075278687691,1.097968926655742,840.9157509157509,784.1025641025641,801.8315018315019,809.0842490842491,645.4945054945055,-0.8281860000000001,0.156616,0.5603640000000001,5.114136,-4.501037999999999,1.188812,67.0,54.0,13.0
700.4524886877828,37.69101539174979,,,,,,,23.53512639213177,23.604890905684233,0.053809524557989034,0.03359988974587287,700.0,34.21384615384618,0.04887692307692311,46.15384615384619,4.705882352941177,40.588235294117645,8.947368421052632,140.625,,,0.034228275073720615,0.028664608655714536,0.0019726775257523283,1.1940953209872935,0.5276802422022253,0.4419079724438853,-3.5520920650535674,2021-10-14 14:23:10,2021-10-14 14:23:10.420,0.355739187341896,0.1186397621354466,0.1923952821837319,0.3549963826841535,0.2784002155708534,-0.08962723241735703,-0.1290585817033283,0.3700523486741848,0.5943942508460118,0.2148727110000443,0.3795928987208638,0.5734790550618623,1.111150641036824,0.1473855286549966,0.4843903967555984,0.9398628048089548,0.8179523961454533,-0.1708240443078311,0.1610375929660874,1.016964979070097,799.0109890109891,782.8937728937732,804.6520146520148,809.0842490842491,800.6227106227108,-0.836792,0.158936,0.550049,3.8056949999999996,-3.633728,1.046753,52.0,45.0,7.0
699.6380090497737,36.17521100207087,,,,,,,24.267570005218786,24.335406113519912,0.05170561137923725,0.03468589426434713,700.0,34.21384615384618,0.04887692307692311,46.15384615384619,5.294117647058823,41.17647058823529,8.5,132.8125,,,0.036472850143238526,0.030287549194662863,0.0020787525062261557,1.204219262140418,0.529827128402511,0.4399756299037929,-3.4970185685845063,2021-10-14 14:23:11,2021-10-14 14:23:11.424,1.1315900013278941,0.03956349520234236,0.7366731468119821,0.5409893823270102,0.5118400090649584,-0.1376773171151982,0.4165766954136363,0.1516411273510126,0.5426446353177975,0.2110698681514689,0.2691335169798827,0.5746222705075,1.106362097713731,0.3195374191682325,0.4381870526190242,0.9117882523337996,0.9049354681237396,-0.1958937426205406,-0.036078670364147414,1.049037977441412,738.974358974359,781.2820512820513,807.8754578754579,761.9413919413921,1004.908424908425,-0.836304,0.160339,0.539673,4.4487,-6.781464,0.291595,44.0,37.0,7.0
699.1855203619908,35.582229636091036,,,,,,,23.911476155238763,23.982144621018797,0.0508909704217973,0.034199043685657286,700.0,34.21384615384618,0.04887692307692311,44.23076923076928,4.705882352941177,40.588235294117645,8.095238095238095,132.8125,,,0.03875047439710925,0.0321366702533518,0.0021869974031394394,1.2058024086383885,0.5302898304120418,0.4397816977417167,-3.4377575253667096,2021-10-14 14:23:12,2021-10-14 14:23:12.420,1.178937686515636,-0.05997890929061979,0.6808759102031783,0.9755462517332556,0.5674012949605379,-0.2284492435646111,0.3568084156700615,0.1733055129382261,0.7027661028474567,0.1502970439035485,0.126772940881579,0.5957730795777845,0.8402883392591332,0.1692019736222907,0.3716722935998421,0.8915954191910228,0.8935637002143526,-0.2812431525123542,0.009241115804409292,0.9022113309303454,761.5384615384613,782.8937728937732,811.5018315018315,787.3260073260074,522.1978021978022,-0.824829,0.15863,0.545593,3.551483,-6.564636,1.1514280000000001,19.0,25.0,-6.0
699.2307692307692,35.62749361349926,,,,,,,24.021045124478626,24.09243025993457,0.05095241110841479,0.03435352988099253,700.0,34.21384615384618,0.04887692307692311,44.23076923076928,4.705882352941177,41.17647058823529,8.095238095238095,132.8125,,,0.03928828799500875,0.03269733258680309,0.002189221280807044,1.2015747122707443,0.5296713415011465,0.4408143214833224,-3.4204617766751464,2021-10-14 14:23:13,2021-10-14 14:23:13.427,0.604779253269055,-0.0730815961370828,0.2471982667370881,0.6425960265535673,0.3949486633251673,-0.1600922169343298,-0.4492224539170027,0.2456886200466744,0.8232162454674606,0.2626454140786748,0.08856729366993506,0.470791516149363,0.6132051645373926,-0.001751721210117893,0.40477428473301597,0.7552835272013528,0.5820875237695919,-0.2457293378371946,-0.03445535389398335,0.5619128168071909,821.5750915750915,786.9230769230769,799.8168498168499,824.3956043956044,661.2087912087912,-0.8344729999999999,0.156555,0.534729,3.955231,-4.082336,1.069183,0.0,10.0,-10.0
699.3212669683259,35.71767649689878,,,,,,,23.99917134990916,24.070101855030483,0.051074775191294934,0.03431780568314413,700.0,34.21384615384618,0.04887692307692311,44.23076923076928,4.705882352941177,41.17647058823529,8.095238095238095,132.8125,,,0.03727607267723327,0.03121104330855938,0.0020487956666617193,1.194323185826044,0.52846942506252,0.4424844391654412,-3.4669832945955865,2021-10-14 14:23:14,2021-10-14 14:23:14.423,0.909704294748359,0.2237376022170789,0.3457234707955512,0.8341227360539002,0.6037672295263363,-0.2473119473907286,0.0038081294700553657,0.604411191771167,0.8681462689827496,0.1829348511462987,0.2092627068136934,0.4875692225151982,0.571851531083884,-0.000190285962074827,0.3616236493868832,0.8581004011399591,0.3507112503124039,-0.2339311844509799,-0.003987549648944058,0.8026573574328928,765.1648351648352,785.3113553113553,803.8461538461539,780.4761904761905,951.3186813186812,-0.838318,0.161194,0.5275880000000001,3.9701839999999997,-4.673004,0.328979,0.0,0.0,0.0
699.2307692307692,35.715831244975305,,,,,,,24.1808482150326,24.252536383820058,0.05107874655497019,0.034582071154612086,700.0,34.21384615384618,0.04887692307692311,44.23076923076928,4.705882352941177,41.76470588235294,8.5,132.8125,,,0.03534497356485143,0.02981558868466619,0.0019086008558672355,1.1854528159301092,0.5269929119186169,0.4445498840922968,-3.5127239120215368,2021-10-14 14:23:15,2021-10-14 14:23:15.419,0.2973232224491805,0.3333586451532062,0.028659329790355237,0.5473021928556506,0.2073418822489978,-0.2898359950115089,-0.07334709024960732,0.3842344789559737,0.5257572515679352,0.02020757712072545,0.2327297265443087,0.7617309809449011,0.7688665667555599,-0.09664451640770524,0.4151101047703719,0.9147005639016548,0.5924845210254526,-0.03358853567279188,0.1462415829646553,0.9575360074624526,759.1208791208792,787.7289377289377,799.4139194139194,764.3589743589743,509.3040293040293,-0.8482059999999999,0.154114,0.5233760000000001,3.9926150000000002,-5.7122800000000025,1.629944,0.0,0.0,0.0
698.8304093567251,35.750843245567474,,,,,,,24.10962317603117,24.17812249908757,0.05115811041834342,0.034499962871140835,700.0,34.21384615384618,0.04887692307692311,42.307692307692385,4.678362573099415,41.52046783625732,9.0,140.625,,,0.03308276649464777,0.028142349451898474,0.0017316729334750152,1.1755509806028654,0.5254837021261463,0.4470105599815493,-3.570479739242438,2021-10-14 14:23:16,2021-10-14 14:23:16.435,0.2941383540996635,-0.08730033390491082,0.01221383540288869,0.3803693010079019,0.147788638966265,-0.2834333365189886,-0.1094632717400825,0.3557991740192763,0.6533283388321108,-0.1602762578417159,0.08871781243977324,0.7240216297990645,0.6543323046079808,0.1072328900005583,0.5295687294684128,0.8224583673139709,0.4789592926189696,-0.1549383474958282,0.1212569972614178,0.8554940820508603,814.3223443223442,788.5347985347986,805.054945054945,775.2380952380953,631.3919413919414,-0.8299559999999999,0.16217,0.5483399999999999,3.6187739999999997,-5.652466,-0.007476999999999998,11.0,0.0,11.0
698.6877828054297,35.80763225199762,,,,,,,24.51875663325522,24.590561480689825,0.05124983309171345,0.035092579599439185,700.0,34.21384615384618,0.04887692307692311,38.46153846153845,5.294117647058823,41.76470588235294,8.947368421052632,140.625,,,0.03134410576512557,0.026745729727178633,0.0015850601865917211,1.171929354138135,0.5252477680695877,0.4481906406857328,-3.6213804547505166,2021-10-14 14:23:17,2021-10-14 14:23:17.419,0.03824206864885266,-0.4632512950642511,-0.2390637918206936,0.07573599660677963,0.04967050648180201,-0.2580300126187305,-0.2113415118400773,-0.00841477021342431,0.553850505574582,0.1916732844414622,0.2784236026546181,0.7641198777246856,0.6527273147574799,0.2621017507793068,0.4535395244092115,0.9428972755356476,0.6820221173837071,-0.1899716518401919,0.04805461829455655,0.7383500272321376,765.1648351648352,786.1172161172162,796.9963369963368,781.2820512820513,944.065934065934,-0.826355,0.158813,0.542603,3.8356019999999997,-5.5776980000000025,0.650482,15.0,11.0,4.0
699.1402714932127,36.21029338955525,,,,,,,24.51875663325522,24.58208484099865,0.05179260137914509,0.035069867425729095,700.0,34.21384615384618,0.04887692307692311,44.23076923076928,5.294117647058823,41.76470588235294,8.947368421052632,140.625,,,0.030108253965978892,0.025572208793251443,0.0014357778757701663,1.1773818292115823,0.5271399803496298,0.4477221979063682,-3.6662491111942273,2021-10-14 14:23:18,2021-10-14 14:23:18.420,0.22444379100698691,-0.1487546717878953,-0.1645990248614614,0.1538484392594176,0.1659715077528701,-0.3016406176157546,-0.4157142532501242,0.2950194716711085,0.5295640291825484,0.2113512800839038,0.1937076890634469,0.8156552623002544,0.7239648696018679,0.163911274169073,0.265920789725489,0.9094449497449842,0.6312921966472121,-0.2917218601894216,0.2328248752782861,0.8109446012854338,773.2234432234433,790.5494505494507,804.6520146520148,763.5531135531136,433.55311355311363,-0.827148,0.165649,0.5401,4.157104,-4.628143,1.05423,0.0,28.000000000000004,-28.000000000000004
700.497737556561,37.21836217136823,,,,,,,24.173607355994672,24.245059057212128,0.053131309604498286,0.034509186910889625,700.0,34.21384615384618,0.04887692307692311,46.15384615384619,4.705882352941177,41.76470588235294,8.947368421052632,140.625,,,0.030100977913966324,0.02524411520427781,0.0013498535892145626,1.1923958384116975,0.5309287628275746,0.4452621736207883,-3.6791622116404734,2021-10-14 14:23:19,2021-10-14 14:23:19.420,0.2919760115118974,-0.2769002802526436,-0.2775905872838163,0.5428734997362817,0.2421569510318939,-0.3244698977097469,-0.4684625305281574,0.3122084123187617,0.5557569627791524,0.2064756725615536,-0.07542733717582906,0.7004076913496223,0.7694206244899334,0.094893677171971,0.435961776118967,1.008610125587109,0.5375046252603832,-0.2517433305023513,0.2264963420261717,0.9939955395234638,818.3516483516484,780.4761904761905,807.8754578754579,773.2234432234433,668.8644688644688,-0.8406370000000001,0.16656500000000002,0.522949,3.962708,-5.450591999999999,0.38879400000000003,0.0,53.0,-53.0
700.4072398190045,37.12527858208196,,,,,,,24.093814285801567,24.162655746394595,0.053005275319078185,0.034399721927528576,700.0,34.21384615384618,0.04887692307692311,46.15384615384619,4.705882352941177,41.76470588235294,8.947368421052632,132.8125,,,0.02979080495889333,0.02447562832095749,0.0012395705922113535,1.2171620098261042,0.5367132000271403,0.4409546105565853,-3.710077418945848,2021-10-14 14:23:20,2021-10-14 14:23:20.434,1.4565602542481002,1.2657404071031961,1.144002021434813,1.2956985323923869,0.5736350283904567,0.3932818214750607,0.29302021825534497,0.4461536144016658,0.8411958218413158,0.6628610132125196,0.5094502753825391,0.7523850518808306,0.7443724676181007,0.045691581743982884,0.4553250371948878,1.00396749758296,0.6933269162568199,-0.2781518970076958,0.1625677568714358,0.9775185589442688,739.3772893772892,766.7765567765567,788.1318681318681,768.7912087912088,1032.710622710623,-0.829468,0.163391,0.531616,3.192596,-6.430054,1.315918,7.000000000000001,67.0,-60.0
700.0452488687782,36.51896381126504,,,,,,,24.06473302681983,24.13469369577448,0.052166576189577735,0.03437596793308242,700.0,34.21384615384618,0.04887692307692311,46.15384615384619,4.705882352941177,41.76470588235294,8.947368421052632,140.625,,,0.02969263137882072,0.02369648988345869,0.00113123180078057,1.2530392275333415,0.5446155373292847,0.4346356645205612,-3.742428347993033,2021-10-14 14:23:21,2021-10-14 14:23:21.420,1.598695293494352,1.4331597844847492,1.337409959260997,1.458244430039199,0.6096581083477118,0.4938153999230253,0.4619590644902339,0.6063292376379305,0.8035034470833696,0.6628610132125196,0.5226726728164249,0.7989632532152285,0.7266480703626553,0.1537290161535197,0.3476472253890308,0.9066554258486792,0.6786574778820176,-0.2445951998409714,0.1322603708786124,0.8932141712987616,240.952380952381,803.8461538461539,816.3369963369963,781.6849816849817,539.5238095238095,-0.839722,0.168274,0.524658,4.216919,-2.9234310000000003,1.323395,16.0,62.0,-46.0
699.8642533936653,36.19129109432789,,,,,,,23.53512639213177,23.603478211068158,0.05171187257933965,0.03362813042387742,700.0,34.21384615384618,0.04887692307692311,46.15384615384619,4.117647058823529,40.588235294117645,8.947368421052632,140.625,,,0.02992532253865914,0.022783308720166547,0.0010040517459320953,1.3134757074230778,0.557136990084975,0.4241699994421883,-3.7817270847954334,2021-10-14 14:23:22,2021-10-14 14:23:22.420,1.0366083136158242,1.019034002898986,0.8875370007070157,1.132612767272594,0.1677669000075429,-0.3866755529318351,-0.3353300009809143,0.2792679975152331,0.3062290647752835,0.02716361263397281,0.08816456237226993,0.6457394642585891,0.7320122949314865,0.2283254189297057,0.25718266696707,0.8496150312578218,0.6977324147505545,-0.2713295723510928,-0.04589710920610826,0.8077360236920809,819.96336996337,788.5347985347986,801.8315018315019,774.8351648351648,561.2820512820513,-0.8558959999999999,0.170837,0.505066,4.037476,-6.198273,0.381317,31.0,57.99999999999999,-26.999999999999996
699.9095022624434,36.176918961691754,,,,,,,23.65384152817359,23.723959722610157,0.05168799515473156,0.033795571358458516,700.0,34.21384615384618,0.04887692307692311,46.15384615384619,4.117647058823529,40.588235294117645,8.947368421052632,140.625,,,0.02982042153502315,0.02173011274069909,0.0008963567751716859,1.372308643349624,0.5685832074600136,0.4143260411682442,-3.829056296476034,2021-10-14 14:23:23,2021-10-14 14:23:23.420,0.4717709702575734,0.4796275466689895,0.4054302839456669,0.7879421300565197,-0.0232158091760961,-0.1665838731105457,-0.7180782729280767,0.1716205285892818,0.4237098614476909,0.1856471722347513,-0.027218615842326342,0.700989176293869,0.7616030214958895,0.07991019296375904,0.2667605993867174,0.8253567958561652,0.6935804189307591,-0.2627437636910528,-0.08096549308808793,0.8451905436943787,774.0293040293042,785.3113553113553,804.2490842490844,784.9084249084249,968.6446886446887,-0.849426,0.174683,0.5193479999999999,4.179535,-5.914154,0.620575,46.0,50.0,-4.0
700.2262443438915,36.47991592189781,,,,,,,24.21702003512559,24.285512250346994,0.052097327423194936,0.03458456496131021,700.0,34.21384615384618,0.04887692307692311,46.15384615384619,4.705882352941177,41.17647058823529,9.444444444444443,140.625,,,0.029938929772063007,0.02058252949950133,0.0007785275981192121,1.4545797091066168,0.5836050182257617,0.4012190013183973,-3.8833126455605407,2021-10-14 14:23:24,2021-10-14 14:23:24.426,0.6163791773304395,0.6332988532203334,0.4690280323188665,0.9638102953633748,0.03385146231864092,-0.0442064144779784,-0.4225160188983925,0.2904020396116707,0.5142307578281595,0.2991121517022978,0.040223687685657684,0.7966916018075284,0.6812120110483905,0.07916070685982489,0.1686940514800928,0.6964751006019777,0.5960767237901412,-0.07946379214587436,0.05223835396480191,0.4300511495423633,768.3882783882782,774.8351648351648,797.3992673992674,811.9047619047618,728.4981684981685,-0.8471069999999999,0.178101,0.518066,4.037476,-4.844971,0.6654359999999999,56.99999999999999,46.0,10.999999999999993
700.8597285067873,37.26813274384739,,,,,,,24.21702003512559,24.273494988031928,0.05317488111815013,0.034553305105318316,700.0,34.21384615384618,0.04887692307692311,46.15384615384619,4.705882352941177,41.17647058823529,9.444444444444443,140.625,,,0.030257664048150355,0.01986609429985627,0.0006988664259345698,1.5230806615253645,0.5953581536320941,0.39089075757540204,-3.9187408044038903,2021-10-14 14:23:25,2021-10-14 14:23:25.422,0.9119631733624288,0.4798940882403308,0.5123024260725438,0.4827056359890322,0.04232917629746481,-0.06119089249677365,-0.06485619596011974,0.2395099165414205,0.5331607382792788,0.3010010561700152,0.1491332455769955,0.7422892935485238,0.7022682650251248,0.1477635169123305,0.3710118112976027,0.8046950830998536,0.3751508762513783,-0.1602053982438724,0.1221990564620137,0.5037852767880805,771.2087912087912,773.2234432234433,782.4908424908424,801.025641025641,730.1098901098901,-0.840332,0.175781,0.515808,3.902893,-5.794525,0.792542,62.0,45.0,17.0
701.7194570135747,37.8582909696774,,,,,,,24.101079117652432,24.16300075468684,0.053950749963236434,0.034345747259486636,700.0,34.21384615384618,0.04887692307692311,46.15384615384619,4.705882352941177,40.588235294117645,9.444444444444443,140.625,,,0.030686212392282683,0.019302679745934432,0.0006312742241956277,1.5897384609898986,0.6062052853123034,0.3813239096793516,-3.9475113457700335,2021-10-14 14:23:26,2021-10-14 14:23:26.434,0.8377769087081919,0.7699095454758819,0.6466050877812275,0.7805342398531215,0.2839852990402195,0.2560111459948511,0.09045017781268648,0.2494596362800554,0.4945203626578358,0.5456167913239296,0.08322217037081152,0.8862376069829915,0.6913044933187086,0.1014353597742406,0.3500194375792338,0.9478577345741144,0.6230681759442903,-0.1547199457599662,0.134391216069066,0.5985331716203388,802.2344322344322,782.0879120879123,774.0293040293042,780.4761904761905,894.5054945054945,-0.856201,0.174561,0.502197,4.545898,-4.239349,0.508423,59.0,32.0,27.0
702.0027309968139,38.086747070913326,,,,,,,24.383061158450733,24.45578289707382,0.05425441439071296,0.034733570229602696,700.0,34.21384615384618,0.04887692307692311,46.15384615384619,5.325443786982249,40.828402366863905,9.388888888888891,140.625,,,0.028863145685167426,0.01734581240457416,0.0005192147163914937,1.6639835028745091,0.6176818812264607,0.3712067338164253,-4.05440416168818,2021-10-14 14:23:27,2021-10-14 14:23:27.420,1.008570567992879,0.7068700979991664,0.7859444499598124,0.8164776415156786,0.7463987182619687,0.2319220207146218,0.3161884729437162,0.6659174346099542,0.8398893067080498,0.5610766430766289,0.4991624483130806,0.9921086469796836,0.6739634342212171,0.1925600129450397,0.5860345637813958,0.9590435899937672,0.5821433026748593,0.03441641091663649,0.3931274665450613,0.67125311164771,796.5934065934067,786.1172161172162,803.040293040293,839.7069597069597,774.4322344322345,-0.853088,0.18096900000000002,0.495667,4.5159910000000005,-5.510406,0.687866,53.0,32.0,21.0
701.6289592760181,37.95467781734265,,,,,,,24.310814892513772,24.374683362606543,0.05409508446815895,0.03464910416126368,700.0,34.21384615384618,0.04887692307692311,46.15384615384619,5.294117647058823,40.588235294117645,9.444444444444443,140.625,,,0.028280391869193507,0.016533538676609394,0.0004638980209748875,1.710486328568174,0.6245969112119479,0.3651574998174876,-4.102364314040279,2021-10-14 14:23:28,2021-10-14 14:23:28.420,1.291450069884823,0.6349598870519133,1.050457936855599,1.118611230307392,1.040254576893864,0.4604363362559755,0.7018297435449004,0.9709472774412384,0.8313964717895779,0.5198306334564355,0.5575299754791576,0.9007792668946252,0.7355547337128465,0.1533118692318529,0.616168111750201,0.9707091691060926,0.3153440404953214,-0.01387196744498258,0.2848656377776981,0.7773572347883508,799.8168498168499,784.5054945054945,791.3553113553114,792.5641025641023,850.5860805860806,-0.8468629999999999,0.18365499999999998,0.524475,4.493561,-5.001983999999998,1.061707,47.0,33.0,14.0
701.1312217194569,37.30779098669672,,,,,,,24.1156022157572,24.186191268115675,0.05321085387583077,0.034395276474232586,700.0,34.21384615384618,0.04887692307692311,46.15384615384619,5.294117647058823,40.588235294117645,8.947368421052632,140.625,,,0.029658358325735795,0.017036056480855963,0.0004516534621608177,1.740916881736332,0.6290738425242711,0.36134628202172064,-4.072423211544184,2021-10-14 14:23:29,2021-10-14 14:23:29.420,0.573913647452647,0.6457649144936334,0.5583115380357739,0.334460683645475,0.3543779711756095,0.1528455259860447,0.1156332701700085,0.1547050600920317,0.527838356889182,0.3950665030699175,0.3258350180649626,0.5041437006783459,0.6023440522345944,0.1071032817767735,0.4751311989913427,0.8250035817204241,0.4479092243526526,-0.1640854608421927,0.003754600971715632,0.6597637581819239,787.7289377289377,790.952380952381,807.4725274725273,774.0293040293042,755.4945054945055,-0.856567,0.174988,0.502747,5.891724,-3.611298,2.220612,43.0,33.0,10.0
701.3574660633484,37.3705338743813,,,,,,,23.90415370026527,23.97501760589397,0.0532831482983114,0.03408269656618468,700.0,34.21384615384618,0.04887692307692311,46.15384615384619,4.705882352941177,40.0,8.947368421052632,140.625,,,0.02900649503445245,0.016550972613208214,0.0004183534515784465,1.7525553157706468,0.6309076018858204,0.3599929749483502,-4.101310410716166,2021-10-14 14:23:30,2021-10-14 14:23:30.422,0.7186663071420372,0.2410277426627004,0.2215631515302393,0.3918911529714399,0.4797505171515361,-0.4494425416929259,0.0709307636888526,0.4879521054392046,0.4631037539130893,0.24011198004300402,0.33076229899049,0.47711029629953994,0.4958090599121349,0.1198109914984707,0.3803812582016589,0.7855671711958099,0.4610946879761592,-0.2975878272118986,-0.04028609097600019,0.5667421951268146,839.7069597069597,792.9670329670329,801.4285714285713,785.3113553113553,572.1611721611722,-0.8620610000000001,0.16802999999999998,0.487671,4.052429,-4.299164,0.157013,45.0,35.0,10.0
701.2669683257919,37.35498897873651,,,,,,,24.013756080121922,24.0847301644193,0.05326785755775434,0.03424338684802518,700.0,34.21384615384618,0.04887692307692311,46.15384615384619,4.705882352941177,40.588235294117645,8.947368421052632,140.625,,,0.028554319925784437,0.016442566590222918,0.00039731442914956393,1.736609656959724,0.6290301256824057,0.3622173371900087,-4.107881782912649,2021-10-14 14:23:31,2021-10-14 14:23:31.420,0.8307917598704011,0.2123932195093934,-0.07019812694519159,0.4325263788513997,0.6947713202388293,-0.1309727357538218,-0.1599239441125925,0.6968782998501072,0.6931848015166777,0.2206518737713013,0.1737836456594115,0.7061608516290573,0.5496152758552304,0.01581915885794963,0.4032905119277279,0.7275892256661971,0.3525765448939813,-0.15259590446558402,0.2716034058180755,0.5716708513085276,751.4652014652015,786.5201465201468,782.0879120879123,817.1428571428571,783.6996336996338,-0.8672489999999999,0.173279,0.49102799999999996,4.09729,-4.7253419999999995,0.127106,44.0,34.0,10.0
700.8597285067873,37.35259051997136,,,,,,,24.0356165817632,24.10704502030802,0.053295387080597015,0.034294475205433966,700.0,34.21384615384618,0.04887692307692311,46.15384615384619,4.705882352941177,40.588235294117645,8.947368421052632,140.625,,,0.027767207873975963,0.016342585214434168,0.0003856908474462834,1.6990707106395435,0.6240455304184236,0.3672863798490929,-4.113980988207112,2021-10-14 14:23:32,2021-10-14 14:23:32.420,0.7775015540513555,0.3118199599230967,-0.02476731433673118,0.4117811784384842,0.3798280419090692,-0.09360464123309334,-0.2846643035930526,0.449814872504683,0.5691938047854135,0.1007402290854244,0.09787575232148724,0.6380933764009283,0.5873258665951088,0.09557781695582734,0.3820573830254598,0.6135818765396011,0.4902585118029417,-0.1281366782865677,0.3122427889759385,0.5518141762406011,768.7912087912088,789.3406593406594,782.0879120879123,781.2820512820513,749.4505494505495,-0.872131,0.170349,0.47375500000000004,4.082336,-4.9646,0.650482,38.0,33.0,5.0
700.9049773755656,37.34682807575909,,,,,,,23.92611434219613,23.996131748687443,0.05328372501447876,0.03413603143721978,700.0,34.21384615384618,0.04887692307692311,46.15384615384619,4.705882352941177,40.0,8.947368421052632,140.625,,,0.0267401269711345,0.016288281436458038,0.00037908422498131365,1.641678839811922,0.6160256063965366,0.3752412417444031,-4.117309360002371,2021-10-14 14:23:33,2021-10-14 14:23:33.420,1.269154529552404,0.07959970913041747,0.5210823273456524,0.4267860300943579,0.2234167637131364,-0.3223009739775661,-0.1884192080967642,0.08299196183840851,0.5703465442059062,0.06683395008220662,0.0192273455803316,0.6716529593844554,0.6752540532185841,0.08463765708236033,0.3557135623448677,0.590442341740155,0.3705494770337674,-0.329395941122477,0.1220312636971882,0.3591382090761774,830.8424908424909,779.2673992673992,814.7252747252749,795.7875457875458,814.3223443223442,-0.8673709999999999,0.170349,0.46765100000000004,3.9402769999999996,-5.50293,0.411224,37.0,34.0,3.0
701.5020482476103,37.01756555418304,,,,,,,23.864757011520876,23.935000312787533,0.05276900565957703,0.03401951151979715,700.0,34.21384615384618,0.04887692307692311,46.15384615384619,4.733727810650888,39.05325443786983,8.45,140.625,,,0.025430260778852375,0.01643985311461768,0.0003803152573139469,1.5468666661164252,0.6018935497222161,0.3891049971574696,-4.108046824027978,2021-10-14 14:23:34,2021-10-14 14:23:34.420,1.143757225113396,0.3370139690220435,0.35453539387481897,0.6155755242089246,0.3132783159896155,-0.03224918065298566,-0.1526694594222894,0.2115735911160354,0.5413845930858211,0.2152825179470603,0.2352760774012141,0.3691789512055353,0.6631665708843881,0.1117984190947851,0.3387411989108821,0.6474539773312533,0.4443134512885948,-0.2446671175497739,0.3124610595757663,0.4946478623168739,778.0586080586081,795.7875457875458,795.3846153846154,796.1904761904763,709.1575091575091,-0.87561,0.18103,0.471558,4.3365480000000005,-4.628143,1.128998,39.0,32.0,7.0
701.9004524886877,36.81797136990145,,,,,,,23.77196381846233,23.84243391876769,0.05245469103112572,0.033867998993554506,700.0,34.21384615384618,0.04887692307692311,44.23076923076928,4.705882352941177,38.82352941176471,8.5,140.625,,,0.02423612988750732,0.016630753305029892,0.000384890935177231,1.457308003010135,0.587517274104936,0.40315243784525495,-4.0965016888459225,2021-10-14 14:23:35,2021-10-14 14:23:35.436,0.6809186089379533,0.7134462079120266,0.4935654027758062,0.284413518503982,0.46371140726643195,0.2923733337190644,0.2577264360170564,0.2999323163130461,0.5052495026796959,0.5765035296280092,0.3951229600644219,0.6989301877971071,0.62602597475966,0.1770703889268366,0.4357519719088706,0.6918716332040377,0.5155886089827346,-0.2876007437490662,0.4044409803896324,0.5706390673761189,802.2344322344322,781.6849816849817,799.8168498168499,755.8974358974359,716.007326007326,-0.87146,0.17193599999999998,0.466003,4.658051,-4.9272160000000005,0.957031,43.0,35.0,8.0
702.0027309968139,36.92223928145089,,,,,,,23.80564916345588,23.876419691269717,0.05259557783916721,0.03391104922006909,700.0,34.21384615384618,0.04887692307692311,46.15384615384619,4.733727810650888,39.05325443786983,8.04761904761905,132.8125,,,0.02223685410900967,0.016653580240618162,0.00038612064317741784,1.3352596731586808,0.5661610116539767,0.42400817087111625,-4.09513005620465,2021-10-14 14:23:36,2021-10-14 14:23:36.420,0.918015745805611,0.2304524745829604,0.1840441058089617,0.4790765753757299,0.2905154958043678,-0.05351234877887751,0.0812501420610168,0.3360868906472872,0.609331773106684,0.5128020936179528,0.4170693045110842,0.7042749312173952,0.7060757103136034,0.1653585608574459,0.4053195437317022,0.6375950583160432,0.6688403938811267,-0.2455268551685328,0.2713383723635808,0.4857771117996451,772.0146520146519,796.1904761904763,804.6520146520148,802.2344322344322,661.6117216117217,-0.872986,0.182373,0.469421,4.0000919999999995,-4.8823550000000004,1.05423,51.0,37.0,14.0
702.2171945701358,36.804907201917295,,,,,,,23.742488340519387,23.812345505635907,0.052412426648777134,0.03381074762068937,703.8461538461537,28.51153846153854,0.04050819672131159,44.23076923076928,4.705882352941177,38.82352941176471,7.727272727272727,132.8125,,,0.020674685995103786,0.016732100946164973,0.0003877845614653965,1.2356300061554708,0.5470279241982708,0.4427117514734763,-4.090426192300317,2021-10-14 14:23:37,2021-10-14 14:23:37.427,1.29664795913269,0.5165096392008001,0.2230298438639923,0.6143739624938193,0.6267669618833946,0.08470920707907965,0.08145561497457296,0.5747325870472538,0.7014963914846326,0.3223869357867353,0.4065650627173314,0.7292912150404821,0.6454910356554169,0.1620666961337143,0.4854933407599226,0.5945014844506198,0.6711359501316589,-0.07301551327073857,0.36186605902549496,0.5452434034720784,759.1208791208792,793.3699633699632,809.8901098901099,823.5897435897436,803.040293040293,-0.8728030000000001,0.183594,0.47198500000000004,4.187012,-7.2450259999999975,0.852356,55.00000000000001,42.0,13.000000000000007
702.3981900452487,36.7554059296946,,,,,,,23.47554369807973,23.545130697107354,0.05232844624404113,0.033421987742547316,707.6923076923077,34.21384615384601,0.04834565217391283,38.46153846153845,4.705882352941177,38.23529411764706,7.391304347826088,132.8125,,,0.019184458076700796,0.01684997371583219,0.00038942419829877674,1.138545282042495,0.5267003603772676,0.4626081796521898,-4.083406182076248,2021-10-14 14:23:38,2021-10-14 14:23:38.420,1.265846552065755,0.7757830644125691,0.1237495306674163,0.9271825108116712,0.6555919001179573,0.2190508768758239,-0.1187517388331236,0.4185676280904974,0.7898062772337545,0.3200687483562731,0.1492281382241757,0.6006962198742917,0.5751605733106886,0.1661930369320787,0.5547150948550759,0.676638521513928,0.3862088900038543,-0.2443321409789335,0.2328533824007613,0.7350897010767816,786.5201465201468,793.3699633699632,799.4139194139194,797.3992673992674,657.985347985348,-0.869812,0.18524200000000002,0.45813000000000004,3.693542,-5.7197569999999995,0.381317,63.0,49.0,14.0
702.0937642239418,36.76419230895992,,,,,,,23.515370895592604,23.584061482783433,0.052363650244917306,0.03349320574237728,700.0,34.21384615384618,0.04887692307692311,38.46153846153845,4.733727810650888,38.46153846153847,7.3478260869565215,132.8125,,,0.017888716298394156,0.017082680760956138,0.00039193565403823193,1.0471843704578427,0.5058549329436224,0.4830619585378799,-4.069690149720008,2021-10-14 14:23:39,2021-10-14 14:23:39.422,0.6438418920721863,0.5153616961901168,-0.09688330574391812,0.6106540942636858,0.3090362388780463,0.02491066352148157,-0.03126520435549684,0.4761046496663906,0.7767552408671135,0.3526896898873247,0.07453322006891856,0.6255332704652099,0.6133544437438826,0.1132259700249128,0.4616966949572788,0.8092441458680335,0.46954332431801,-0.3582177995876787,0.2165102895129662,0.6639545780335568,773.6263736263736,785.7142857142858,796.1904761904763,801.4285714285713,617.6923076923077,-0.8765870000000001,0.187622,0.457214,3.8356019999999997,-4.553375,0.6130979999999999,64.0,50.0,14.0
701.9457013574661,36.51479016382096,,,,,,,23.482999802348434,23.551679886155878,0.052019394225516866,0.033454154298452936,703.8461538461537,28.51153846153854,0.04050819672131159,38.46153846153845,4.705882352941177,38.23529411764706,7.083333333333332,132.8125,,,0.016562534871947848,0.017532671674201198,0.0003957758053205465,0.9446669155573776,0.4801989894973853,0.5083262487435114,-4.043689185831509,2021-10-14 14:23:40,2021-10-14 14:23:40.425,0.904198502691126,-0.007233842850502083,-0.1800861975240235,0.2464883192791227,0.2220975604584977,-0.2381711364284939,-0.3360400300862349,0.2746039490040689,0.1570101253937731,0.08852221571317302,0.1041193145011313,0.2843441946654049,0.520553911714699,0.1236218323601184,0.4155050955521388,0.6256427390279845,0.3398604923281009,-0.3467669642940026,0.01920294018925095,0.5065287938092713,772.0146520146519,784.5054945054945,794.1758241758242,799.0109890109891,779.2673992673992,-0.874878,0.192261,0.4776,4.187012,-4.568329,0.717773,64.0,53.0,11.0
701.866181156122,36.647001186782454,,,,,,,23.724135417252608,23.79346428020133,0.05221365862993582,0.03380150811394552,700.0,34.21384615384618,0.04887692307692311,38.46153846153845,4.733727810650888,38.46153846153847,7.041666666666668,125.0,,,0.015734138628401652,0.018002273102356737,0.000398863007990554,0.874008439875398,0.4609348759844874,0.5273803489245483,-4.017257245594795,2021-10-14 14:23:41,2021-10-14 14:23:41.420,1.070988247652304,0.2347324825902087,0.4844630345638742,1.272039333234292,0.5916535424393343,0.041660698628018716,0.02204372907345677,1.105268378890498,0.5987400734888947,0.029490851609053518,0.1185879472596331,0.7832866102933147,0.6021026907114317,0.1330672217161506,0.4401656572029108,0.5083358922752723,0.3594253499787892,-0.2250086083360445,-0.05523406097556139,0.3991059403234743,799.0109890109891,786.5201465201468,792.1611721611722,803.4432234432236,752.2710622710623,-0.881775,0.186401,0.4577640000000001,4.0000919999999995,-5.3160099999999995,1.0243229999999999,62.0,53.0,9.0
702.3213472917613,37.1934235633049,,,,,,,23.83522140984307,23.902904618815498,0.052957842883072516,0.03393777150837668,700.0,34.21384615384618,0.04887692307692311,38.46153846153845,4.733727810650888,39.05325443786983,7.3478260869565215,125.0,,,0.014961602755329102,0.0183771854886611,0.000397716614452508,0.8141400523252355,0.44348407809604173,0.5447270120532989,-3.996645302797392,2021-10-14 14:23:42,2021-10-14 14:23:42.420,1.536337232089577,0.2466685951792381,0.4449494034477467,1.5042344463203001,0.9755832936086896,-0.09988058830574442,0.08235815465629301,1.215431074010554,0.6075526832474105,-0.04996364656812837,0.2327428091919836,0.7964541515626122,0.6082506388174385,0.09385723033578754,0.4121755273554999,0.6521128206798031,0.414884968894661,-0.2299298865056668,0.1005812985058457,0.6432503621143364,746.6300366300368,784.9084249084249,806.6666666666667,798.2051282051282,771.2087912087912,-0.884705,0.194275,0.44873,4.3141169999999995,-4.844971,1.136475,54.0,48.0,6.0
702.89592760181,37.609617722658975,,,,,,,23.955363881653447,24.02616348832042,0.05350666613047272,0.034080954151187136,703.8461538461537,28.51153846153854,0.04050819672131159,38.46153846153845,4.705882352941177,39.411764705882355,7.391304347826088,125.0,,,0.014296197544364812,0.01892124655025877,0.00039519048218359526,0.7555631975087442,0.4253221362847063,0.5629206632709026,-3.967469832208516,2021-10-14 14:23:43,2021-10-14 14:23:43.420,1.1818045817934049,0.04582772844992872,-0.3635574321661812,1.139929544954385,0.7714239724033004,-0.272832119021215,-0.3261252110712687,0.7649666226192661,0.6722429101157376,0.09040703467561348,0.268479586957,0.8351808553322421,0.6289626214510384,0.1689639009206504,0.3378333232487424,0.7858293903027284,0.3545596357648818,-0.3292551941996399,0.1643267028154158,0.7990524815557492,733.7362637362637,779.6703296703297,798.6080586080586,810.6959706959708,766.7765567765567,-0.878967,0.192078,0.44641099999999995,3.693542,-4.673004,1.0916139999999999,52.0,34.0,18.0
702.9585798816568,37.796447300922715,,,,,,,23.960496276114345,24.03212721701766,0.053767673348955734,0.0340852177665263,700.0,34.21384615384618,0.04887692307692311,38.46153846153845,4.733727810650888,39.05325443786983,7.3478260869565215,132.8125,,,0.01406377567023232,0.01948358015921506,0.0003936811604349368,0.7218270746601279,0.4143590449055717,0.5740419824244921,-3.9381832112470567,2021-10-14 14:23:44,2021-10-14 14:23:44.433,0.4157229687006448,0.2240586222929924,0.1418634794166532,0.2765052868631477,0.5501763892628897,0.055869762066778,-0.322444487641059,0.3979072546738785,0.7266632306679056,0.2427442403028312,0.3936530246621871,0.8496343241861114,0.645802676776605,0.1675339441374392,0.5175754077938053,0.9160564242743154,0.4618587546473402,-0.2391895803979592,0.2896143258660669,0.8012227143925472,792.5641025641023,802.6373626373628,786.1172161172162,765.1648351648352,720.4395604395604,-0.899048,0.192932,0.425903,3.289795,1.6523740000000002,3.521576,44.0,23.0,21.0
702.8054298642534,37.58858325920005,,,,,,,24.00646482260449,24.077114165614237,0.05348362670797844,0.03415805257401231,703.8461538461537,28.51153846153854,0.04050819672131159,38.46153846153845,4.705882352941177,39.411764705882355,6.8,109.375,,,0.014172885399618591,0.020380817100786357,0.00039328000262895454,0.6954031984847043,0.40555391008045344,0.583192471596568,-3.8931611587240313,2021-10-14 14:23:45,2021-10-14 14:23:45.420,0.8118486119307656,0.6460771831874867,0.3036581151532561,0.956197859704867,0.3642111654266588,0.2923361170203876,-0.053740428548812884,0.8465923190521538,0.7035758989532626,0.1737973364983122,0.1461149012175313,0.8143499400832225,0.6993949132929262,0.2069806359600096,0.5945440377231563,0.9466559371845881,0.4533675334019976,-0.0860170322788667,0.4512778900288804,0.6782588766988896,699.4871794871796,805.4578754578755,824.7985347985347,680.1465201465203,788.9377289377289,-0.93219,0.192322,0.373474,3.244934,-2.093506,0.239258,50.0,21.0,29.0
702.4123805188893,37.611385709147456,,,,,,,24.048532688830942,24.12025194082563,0.05354601762765485,0.034237056970814916,700.0,34.21384615384618,0.04887692307692311,38.46153846153845,4.733727810650888,39.644970414201175,6.76,101.5625,,,0.01456695304669589,0.021232758112674808,0.00039397623480028,0.6860603304287731,0.4024722015210285,0.5866425788960746,-3.8522100958939576,2021-10-14 14:23:46,2021-10-14 14:23:46.427,1.024504020986846,0.9001594820798351,1.150498098776528,1.1167869636259509,0.32877482479619896,0.3906643345100523,0.6702186847686524,0.8637334082317901,0.4740879725873967,0.4200349888994774,0.5277940418178562,0.6396069902905884,0.7634950228541345,0.248786132698925,0.5833216045476466,0.9184423008036032,0.4231101615947985,-0.05434614459838665,0.4941048039341067,0.6445896491151644,798.6080586080586,785.3113553113553,802.6373626373628,793.3699633699632,975.0915750915754,-0.9077149999999999,0.186646,0.386108,3.3047489999999997,-9.734802,0.91217,57.99999999999999,24.0,33.99999999999999
702.1719457013572,37.59351426753297,,,,,,,24.06473302681983,24.13607529814533,0.05353890097386768,0.03427185203587565,700.0,34.21384615384618,0.04887692307692311,44.23076923076928,4.705882352941177,40.0,6.8,101.5625,,,0.015186725728912371,0.022131694865008086,0.00039434649015034735,0.6861980440966478,0.4026945489058789,0.5868488731063204,-3.810744541091376,2021-10-14 14:23:47,2021-10-14 14:23:47.426,0.4943754665969735,0.7562203023122159,0.9805478485059724,1.419876835523972,0.0878066215408538,0.2274876693226864,0.3994044379046546,0.8363184465317446,0.5100743764587341,0.4524807028272483,0.4373998828031902,0.8637409891737655,0.8474984570168942,0.2131788811747394,0.44586697006522996,1.038838563329762,0.7536331164345971,-0.2455945689559713,0.3636048213959167,0.9365671425506708,885.2380952380953,783.6996336996338,808.2783882783882,805.054945054945,726.8864468864467,-0.897583,0.192688,0.43499799999999994,3.656158,-7.312317,2.3626709999999997,63.0,35.0,28.0
702.1392808375058,37.70281397494925,,,,,,,24.158127055835102,24.23030530156977,0.0536970584098039,0.03440645996478006,700.0,34.21384615384618,0.04887692307692311,46.15384615384619,4.733727810650888,40.23668639053255,7.041666666666668,125.0,,,0.016284852382876337,0.02333185296121474,0.0003946024216489798,0.6979665271312635,0.4070062512883008,0.5831314761771619,-3.757935772132945,2021-10-14 14:23:48,2021-10-14 14:23:48.420,0.4943754665969735,0.6051019263726863,0.6838524756303088,1.518042568049894,0.0878066215408538,0.08893480596679862,0.3973627597582775,0.9557755516933067,0.5100743764587341,0.163370192790714,0.3951488794948349,0.6447958034770075,0.8474984570168942,0.08445455499490111,0.4254058982692682,0.999475172535256,0.7536331164345971,-0.2441849354156764,0.03358102225911578,0.9044201105417902,833.6630036630037,789.7435897435898,794.5787545787546,799.4139194139194,711.5750915750915,-0.8883059999999999,0.190308,0.437805,2.7963259999999996,-6.654358,-0.007476999999999998,69.0,45.0,24.0
701.9572143832498,37.71276250130165,,,,,,,24.21637458355936,24.28837973461112,0.053725158355180734,0.034498362702684415,700.0,34.21384615384618,0.04887692307692311,46.15384615384619,4.733727810650888,40.828402366863905,7.041666666666668,101.5625,,,0.017419003571051257,0.02436061766557123,0.0003948381316044827,0.7150476974838561,0.41302256939360404,0.5776154106180155,-3.714787480732367,2021-10-14 14:23:49,2021-10-14 14:23:49.420,0.4943754665969735,0.8108015099522128,1.06471112432788,1.142452197343771,0.0878066215408538,0.3680304933836567,0.714559308312268,0.6955087772503534,0.5100743764587341,0.02203652349815807,0.6155907848965505,0.3927425576368412,0.8474984570168942,-0.0007270260963012241,0.2747053970376635,0.9058880568997958,0.7536331164345971,-0.3850242518962552,0.08045458908839657,0.995797175817118,701.098901098901,803.040293040293,836.4835164835165,720.8424908424909,709.5604395604396,-0.848389,0.19860799999999998,0.5058590000000001,5.301056,-6.39267,0.224304,70.0,50.0,20.0
701.4932126696832,37.80779923522089,,,,,,,24.209789994649448,24.281049390067096,0.053896172553594884,0.03451179506429418,700.0,34.21384615384618,0.04887692307692311,46.15384615384619,4.705882352941177,41.17647058823529,7.391304347826088,125.0,,,0.01874017988337596,0.02541009556673641,0.0003949611844890324,0.7375092247944225,0.4206999737614852,0.570433507294439,-3.672608720667904,2021-10-14 14:23:50,2021-10-14 14:23:50.420,1.6526535497168742,0.875458435706731,1.0886073656592672,1.6449609120344943,1.3524211443769092,0.3882452872671563,0.7821817053753353,1.1400141501100058,0.9603309232955536,0.1495451998569523,0.6813517344440557,0.9451290466078168,0.7910920681092056,0.040084996522268435,0.2463905669824661,0.7633332065455003,0.5582526624395586,-0.2020204383503513,0.2947364364156156,0.7030962640756063,811.9047619047618,778.4615384615387,800.2197802197803,803.040293040293,718.021978021978,-0.83905,0.217896,0.494568,4.0000919999999995,-7.162781,1.7720029999999998,72.0,52.0,20.0
701.3654984069185,37.93910083292413,,,,,,,24.27448234456601,24.347008648083573,0.054093195230017724,0.034610317159459746,700.0,34.21384615384618,0.04887692307692311,46.15384615384619,4.733727810650888,41.42011834319527,7.6818181818181825,125.0,,,0.020607356144782516,0.0267206894646958,0.00039534958564525915,0.7712134887840222,0.4318082579943557,0.559907553841143,-3.6223171273271375,2021-10-14 14:23:51,2021-10-14 14:23:51.422,1.412696206714815,0.9653769204528826,0.8867619524507933,1.483485983022717,1.0971122567096379,0.1235756858087531,0.5916633826159221,0.9794759405630662,0.9161722851700426,0.07381677549580244,0.5986420258660763,0.947823069304466,0.7743305630025881,0.07568091400261001,0.2943691790738271,0.7383927621448283,0.5352818248360971,-0.2817257805824346,0.2052084438690582,0.7370189387437343,781.6849816849817,766.3736263736264,786.1172161172162,817.948717948718,712.7838827838829,-0.852356,0.21520999999999998,0.4910890000000001,4.142151,-3.6412050000000002,0.927124,73.0,52.0,21.0
701.447963800905,37.823457520347645,,,,,,,24.267570005218786,24.339687757091454,0.053921972081001336,0.03459639382759226,700.0,34.21384615384618,0.04887692307692311,46.15384615384619,4.705882352941177,41.76470588235294,7.391304347826088,125.0,,,0.021605651498184823,0.02697536946436679,0.00038501822681366105,0.8009399658723817,0.44123747511269534,0.5508995604085016,-3.6128310713843104,2021-10-14 14:23:52,2021-10-14 14:23:52.420,0.7488922148384702,0.5379627982705181,0.7211713932110553,0.6322510126880823,0.2533030895775631,0.1036649201989181,0.33278177105350504,0.3895160066840089,0.3776712340022366,-0.006346798770048693,0.4022813326150219,0.5454057962711729,0.6207990901461428,0.06757395111857853,0.3024657901372949,0.7385106242789816,0.7799055068018292,-0.294937799334628,-0.09189153957110416,0.5268313128731051,781.2820512820513,786.9230769230769,800.2197802197803,785.3113553113553,763.956043956044,-0.8654790000000001,0.203674,0.470154,3.858032,-4.7702029999999995,0.7102970000000001,75.0,54.0,21.0
701.447963800905,37.823457520347645,,,,,,,24.2603550295858,24.332408514736198,0.053921972081001336,0.034586107995990586,700.0,34.21384615384618,0.04887692307692311,46.15384615384619,4.705882352941177,41.76470588235294,7.391304347826088,125.0,,,0.02234142218008294,0.026875596550675684,0.0003717017804492043,0.8312902799369212,0.4505343543807191,0.5419699535220187,-3.616536595546221,2021-10-14 14:23:53,2021-10-14 14:23:53.420,0.5477352466581086,0.5210350085777495,0.2639621251001021,0.3799482775249052,0.1335458509430449,0.19996635166459198,-0.3696487827830011,0.2178282803940934,0.5931960345590734,0.1534756963519466,0.07589714851769418,0.6270890223894928,0.7800848820292869,0.09396063802838413,0.2895012776079154,0.7859194387948627,0.6428199660699421,-0.2682233488058104,-0.1686578383537193,0.6074340420009657,749.047619047619,777.6556776556778,821.978021978022,777.2527472527472,820.3663003663004,-0.8564450000000001,0.21038800000000002,0.468811,3.783264,-6.116028,0.732727,76.0,57.99999999999999,18.000000000000007
701.5384615384614,37.84762663149696,,,,,,,24.281993525068867,24.354154140393682,0.05394946778612505,0.03461249077038325,700.0,34.21384615384618,0.04887692307692311,46.15384615384619,4.705882352941177,41.76470588235294,8.095238095238095,132.8125,,,0.02312401023825195,0.02665317316767244,0.00035701970142598726,0.8675893895552744,0.461242202029968,0.531636517899787,-3.6248470672529955,2021-10-14 14:23:54,2021-10-14 14:23:54.420,1.412637252022215,0.4480910008251769,0.8857022999026033,1.3009570314293408,1.022965321948412,0.1956822005826281,0.4177643507142656,0.7979579437353356,0.7625270487457891,0.10368466540192699,0.521429562750955,0.7561180695786676,0.6986021105883361,0.1625030283918124,0.395366626656951,0.7265113474083723,0.561876336466134,-0.18804091944492002,0.2871014100272558,0.7685034772446515,817.948717948718,780.0732600732601,796.5934065934067,775.2380952380953,948.4981684981683,-0.8641969999999999,0.210083,0.466125,4.0898129999999995,-5.891724,0.157013,77.0,67.0,10.0
701.5384615384614,37.84762663149696,,,,,,,24.253137907596678,24.325041417338852,0.05394946778612505,0.03457135885951281,700.0,34.21384615384618,0.04887692307692311,46.15384615384619,4.705882352941177,41.76470588235294,8.095238095238095,132.8125,,,0.023603530616395352,0.026428212586442037,0.00034723207833388343,0.8931186904597637,0.4685194663976617,0.5245881330245985,-3.6333231808616064,2021-10-14 14:23:55,2021-10-14 14:23:55.420,1.1610606300853559,0.5199374998959501,0.6974397664461474,1.0602995043392132,0.7472421434177867,0.1231155306619135,0.4396935923641836,0.552999446761479,0.5290326940678926,-0.08466864511853855,0.5290646636918032,0.6805402625511376,0.6917971942345942,0.08417715495159284,0.4779770173299512,0.4490478372048613,0.8650826384898427,-0.1818943928008607,0.2304693723474807,0.6528935352298905,793.7728937728937,791.7582417582418,792.1611721611722,809.4871794871796,728.901098901099,-0.8707280000000001,0.21344000000000002,0.490234,2.078552,-13.263855,3.708496,75.0,70.0,5.0
701.7296313154302,38.063210342533424,,,,,,,24.354154140393682,24.426789255511345,0.05424198814461045,0.03470589391350128,700.0,34.21384615384618,0.04887692307692311,46.15384615384619,4.733727810650888,42.60355029585799,8.45,132.8125,,,0.023905654549925336,0.026159061778437197,0.0003394559611978557,0.9138574904712624,0.4742792801475411,0.5189860400476254,-3.6435596177749336,2021-10-14 14:23:56,2021-10-14 14:23:56.422,0.7415293244890394,0.7131390141266114,0.9937569025929832,0.7300794610983041,0.3360656824118541,0.3779982229838925,0.7050652124413905,0.3690193134088972,0.4669192617771529,0.1706690027298246,0.5510649172344129,0.5819226428702593,0.6079706703147902,0.1439487540690659,0.5409394352825206,0.6867081073769687,0.5746126234698162,-0.1477316593341063,0.07221816732219412,0.3790737150147426,754.2857142857142,798.6080586080586,805.4578754578755,726.8864468864467,706.7399267399268,-0.768921,0.203125,0.6367189999999999,6.572113000000001,-14.078826999999999,-5.196381,76.0,74.0,2.0
701.5837104072397,37.92430491764146,,,,,,,24.397074707796808,24.46804419564085,0.05405528143694783,0.034774289006276014,700.0,34.21384615384618,0.04887692307692311,46.15384615384619,4.705882352941177,42.941176470588225,8.095238095238095,132.8125,,,0.024043552229181052,0.02583889226206991,0.0003334710726814598,0.930517917924666,0.4788034223645686,0.5145558329843276,-3.655874470101584,2021-10-14 14:23:57,2021-10-14 14:23:57.420,1.4031702750506707,0.3926956487361635,0.3456168748900432,1.4658940655109518,1.0080360720027328,0.07423093759083424,0.08095821521638881,1.059921255616363,0.8841922359736364,0.2258495983774224,0.3941778024319568,0.9413607265154692,0.7258155035959162,0.2022325589581697,0.3825718268729811,0.728073389848867,0.6688002026954979,-0.1981091705524941,0.08292330741142705,0.4981413817662509,802.2344322344322,767.1794871794873,790.1465201465203,837.6923076923077,780.8791208791209,-0.825867,0.189148,0.555664,5.959015,2.8561400000000003,-2.7963259999999996,75.0,75.0,0.0
701.1379153390989,37.914153223218314,,,,,,,24.41914680962698,24.49176140178929,0.05407517179395652,0.03482787947335138,700.0,34.21384615384618,0.04887692307692311,46.15384615384619,4.733727810650888,43.19526627218935,8.04761904761905,125.0,,,0.023979717492471464,0.025643636786773068,0.0003320958249976097,0.9351137551924832,0.4800220484938668,0.513330111794858,-3.663459816630296,2021-10-14 14:23:58,2021-10-14 14:23:58.432,1.701107577913364,0.6779984098784289,1.042147730154235,1.7982732147558749,1.310922845219428,0.5543541479877004,0.5148411641791341,1.3689202880882958,0.8508561862926308,0.328584722674555,0.3709741080940357,0.9328327841839936,0.8702649547284667,0.2808553407947776,0.3628821803418827,0.8065981669030905,0.8102509315096308,-0.09507216396765668,0.1474239677853223,0.5628338391926229,828.021978021978,781.6849816849817,796.9963369963368,770.0,922.3076923076924,-0.8162229999999999,0.166077,0.572021,3.050537,-11.618958000000001,5.166473000000001,76.0,76.0,0.0
700.6787330316741,38.015973851970045,,,,,,,24.38989804204136,24.45892864861248,0.05425592651782616,0.034808960072916624,700.0,34.21384615384618,0.04887692307692311,46.15384615384619,4.705882352941177,43.529411764705884,8.5,132.8125,,,0.023705427179579432,0.02545094700693815,0.0003327292315844108,0.9314163112719194,0.4790029631231614,0.5142737542024003,-3.6710023261891696,2021-10-14 14:23:59,2021-10-14 14:23:59.420,1.823430222051475,0.5548708356939908,1.008901337954691,1.7982732147558749,1.423597456802874,0.4896789099940901,0.4558172092609917,1.3689202880882958,1.008087814073669,0.2935846949808594,0.3902914151443994,0.9328327841839936,0.653714149269605,0.2309370198715904,0.3549586595376847,0.8065981669030905,0.5963770540624065,-0.1906321397935787,0.1564188083208012,0.5628338391926229,850.5860805860806,799.0109890109891,793.7728937728937,768.7912087912088,665.6410256410256,-0.8212280000000001,0.16748,0.580383,4.433746,-5.7272339999999975,1.4953610000000002,79.0,79.0,0.0
