HRV_MeanNN,HRV_SDNN,HRV_SDANN1,HRV_SDNNI1,HRV_SDANN2,HRV_SDNNI2,HRV_SDANN5,HRV_SDNNI5,HRV_RMSSD,HRV_SDSD,HRV_CVNN,HRV_CVSD,HRV_MedianNN,HRV_MadNN,HRV_MCVNN,HRV_IQRNN,HRV_pNN50,HRV_pNN20,HRV_HTI,HRV_TINN,HRV_ULF,HRV_VLF,HRV_LF,HRV_HF,HRV_VHF,HRV_LFHF,HRV_LFn,HRV_HFn,HRV_LnHF,Time,TimeStamp,Delta_TP9,Delta_AF7,Delta_AF8,Delta_TP10,Theta_TP9,Theta_AF7,Theta_AF8,Theta_TP10,Alpha_TP9,Alpha_AF7,Alpha_AF8,Alpha_TP10,Beta_TP9,Beta_AF7,Beta_AF8,Beta_TP10,Gamma_TP9,Gamma_AF7,Gamma_AF8,Gamma_TP10,RAW_TP9,RAW_AF7,RAW_AF8,RAW_TP10,AUX_RIGHT,Accelerometer_X,Accelerometer_Y,Accelerometer_Z,Gyro_X,Gyro_Y,Gyro_Z,Attention,Meditation,A_M
693.4704830053666,52.12555203215796,,,,,,,33.12506304481915,33.222071136348525,0.07516621588024328,0.04776708433394533,692.3076923076923,45.61846153846145,0.06589333333333322,53.84615384615381,10.465116279069766,48.83720930232558,10.75,117.1875,,,0.05256805847741566,0.01711632667715763,0.0008501258090889967,3.071223135018197,0.7452813914666181,0.24266598638467285,-4.067722494540667,2021-10-14 14:48:02,2021-10-14 14:48:02.978,1.9566574721757621,0.1621233046258858,0.1021260981565183,0.9890850406441316,0.790771858496355,-0.061781204169483524,0.020427792791026668,0.6924368463869106,0.8648409068790845,0.0388841753720341,0.057389061472312215,0.6526926825581886,0.6715941536371963,-0.2653369931769156,0.07815298390925345,0.3513602530027549,0.3860906886333928,-0.4011852572486526,-0.2570240730936441,0.2917491208525828,726.0805860805863,795.7875457875458,795.7875457875458,919.89010989011,774.8351648351648,-0.380188,0.254395,0.90802,7.230072,-2.564545,1.540222,90.0,57.99999999999999,32.00000000000001
693.4772829509673,52.2519225706631,,,,,,,33.09638488801701,33.19412774074629,0.07534770619783605,0.047725261809848096,692.3076923076923,45.61846153846145,0.06589333333333322,53.84615384615381,10.526315789473683,47.95321637426901,10.058823529411764,117.1875,,,0.053505998074905685,0.01835255416154273,0.0009318129672414488,2.9154523999185917,0.7350697846504743,0.2521288924734288,-3.9979865228030502,2021-10-14 14:48:03,2021-10-14 14:48:03.979,1.9582652828859308,0.3962919926140817,0.3714156045612928,0.6610437689449853,0.7533612355571864,-0.203985126064758,-0.1033309216106059,0.7473241814219915,0.5962999992766522,0.06346320791580147,0.1116475993780306,0.6909414767722162,0.5814934985647988,-0.1549051354656942,0.2602671607699953,0.4169623818429712,0.2373509227431145,-0.4806380860874414,-0.1804504609123098,0.3756510385083596,788.1318681318681,790.1465201465203,784.5054945054945,714.3956043956044,838.4981684981685,-0.363159,0.24096700000000001,0.914856,4.493561,-6.22818,2.7963259999999996,90.0,60.0,30.0
693.70220422852,52.36282733367522,,,,,,,33.27992007808551,33.377125463661194,0.07548314970673756,0.0479743611527035,692.3076923076923,45.61846153846145,0.06589333333333322,53.84615384615381,10.526315789473683,48.53801169590643,10.058823529411764,117.1875,,,0.05391979527388669,0.019342907205048304,0.0010045891758097664,2.7875745203293003,0.7260234495227064,0.2604498800760097,-3.9454294794138938,2021-10-14 14:48:04,2021-10-14 14:48:04.978,1.9582652828859308,0.5519273627131532,0.4889297601117256,1.5071817846581752,0.7533612355571864,-0.2699744794640591,0.09440062700742688,1.0222895448432372,0.5962999992766522,-0.05343415051287028,0.03466086787369332,1.087224747320519,0.5814934985647988,-0.06551578784624931,0.1881511213254959,0.6050243756429385,0.2373509227431145,-0.5093536230286277,-0.207554164132166,0.3223582347730838,750.6593406593408,805.8608058608058,808.2783882783882,738.5714285714287,703.9194139194141,-0.371155,0.249146,0.9040530000000001,3.738403,-4.560852,0.979462,85.0,56.99999999999999,28.00000000000001
694.9910554561717,53.61453225520304,,,,,,,33.56093788078286,33.64858466376125,0.07714420471211969,0.048289740734511255,692.3076923076923,45.61846153846145,0.06589333333333322,61.53846153846154,11.046511627906975,49.41860465116279,10.75,117.1875,,,0.05420898361455117,0.02037202106146188,0.0010856241565027124,2.6609526590908192,0.7164186438719241,0.26923389314137824,-3.8935928361167096,2021-10-14 14:48:05,2021-10-14 14:48:05.979,1.9582652828859308,0.5656032268954039,0.9929715458239132,1.186143392664257,0.7533612355571864,0.02403073568646303,0.6230126779055627,0.4860223337728103,0.5962999992766522,-0.1203482077782074,0.2928813566362315,0.5233478930854749,0.5814934985647988,-0.08689016586664082,0.162387397444829,0.6715492898749685,0.2373509227431145,-0.3083107743858365,-0.1603385985193076,0.2442235798302123,749.4505494505495,807.4725274725273,788.1318681318681,761.9413919413921,651.941391941392,-0.367615,0.243774,0.907898,4.209442,-4.815062999999999,-0.112152,74.0,54.0,20.0
696.0863697705804,55.1008847308486,,,,,,,33.680177158817855,33.766228936210496,0.07915811474517022,0.048385054817146236,692.3076923076923,45.61846153846145,0.06589333333333322,61.53846153846154,11.111111111111109,50.29239766081871,10.6875,117.1875,,,0.0545515287808446,0.02148547439032915,0.0011777886471940468,2.5389957787201034,0.7064906541374358,0.27825593884743466,-3.840378181927767,2021-10-14 14:48:06,2021-10-14 14:48:06.979,1.9582652828859308,0.5107578270613301,1.291116667321443,0.6342890215036929,0.7533612355571864,0.1096652272137563,0.908463364047461,0.05790856868248125,0.5962999992766522,-0.03165541478630175,0.655674260636686,0.2044200780190797,0.5814934985647988,-0.07457231436791101,0.2259080872337197,0.6932344140240989,0.2373509227431145,-0.3772529221210725,-0.2486131611500855,0.2079457165302929,915.4578754578756,797.8021978021977,781.2820512820513,891.6849816849817,933.5897435897436,-0.378235,0.24951199999999998,0.9016719999999999,4.142151,-5.637512,1.203766,60.0,49.0,11.0
696.8511021142599,55.94906262402175,,,,,,,33.742127261122896,33.83082198460864,0.08028840372680934,0.04842085656282757,692.3076923076923,45.61846153846145,0.06589333333333322,61.53846153846154,11.111111111111109,50.877192982456144,11.4,117.1875,,,0.05505963357703129,0.022949272109956488,0.0013070997570164662,2.3991886676503262,0.6941806167470506,0.2893397364313598,-3.774469059320322,2021-10-14 14:48:07,2021-10-14 14:48:07.979,1.9582652828859308,0.2155676929581793,1.3977624166513407,0.6342890215036929,0.7533612355571864,-0.2733275944330688,0.8657177021784072,0.05790856868248125,0.5962999992766522,0.2202025451285247,0.6461056667951669,0.2044200780190797,0.5814934985647988,0.02253691197165492,0.2195541414058633,0.6932344140240989,0.2373509227431145,-0.4378657733524845,-0.3469756641477194,0.2079457165302929,885.6410256410257,798.2051282051282,780.8791208791209,898.9377289377289,784.1025641025641,-0.383911,0.2494510000000001,0.898926,4.456176999999999,-5.443115,-0.239258,46.0,45.0,1.0
697.6470588235294,56.45260098768029,,,,,,,33.779675683294876,33.877569866926194,0.08091856802618592,0.048419433947387264,692.3076923076923,45.61846153846162,0.06589333333333346,61.53846153846154,11.176470588235297,51.17647058823529,11.333333333333336,117.1875,,,0.04930910975964502,0.02141413617902448,0.0012588251805726732,2.3026429526465866,0.6850193248532934,0.2974926373478586,-3.8437040059207823,2021-10-14 14:48:08,2021-10-14 14:48:08.979,1.9582652828859308,0.6275325145911608,1.37016733914029,0.6342890215036929,0.7533612355571864,0.3647153797493292,1.0134199168315492,0.05790856868248125,0.5962999992766522,0.5912530078365059,0.6038636819096979,0.2044200780190797,0.5814934985647988,0.06342466408178234,0.07795727939139246,0.6932344140240989,0.2373509227431145,-0.3866938090306561,-0.1015394189232567,0.2079457165302929,761.5384615384613,784.5054945054945,786.1172161172162,871.1355311355313,718.8278388278387,-0.407776,0.226135,0.8837280000000001,0.224304,-2.938385,7.925414999999999,36.0,39.0,-3.0
698.0656770130455,56.490305266536524,,,,,,,33.803963832105104,33.90379767537565,0.08092405503770503,0.04842519113208508,692.3076923076923,45.61846153846162,0.06589333333333346,65.38461538461536,11.111111111111109,52.046783625731,11.4,117.1875,,,0.042746177523441474,0.01935097518504741,0.001184688586422849,2.2089934545764733,0.6754888392743171,0.30579033082912765,-3.945012463616168,2021-10-14 14:48:09,2021-10-14 14:48:09.979,1.9582652828859308,0.8805864517402489,1.366975420170891,0.6342890215036929,0.7533612355571864,0.6338464893982719,1.180504138485185,0.05790856868248125,0.5962999992766522,0.6569388276957069,0.7697673993710926,0.2044200780190797,0.5814934985647988,0.001811137646164454,0.2474085944686477,0.6932344140240989,0.2373509227431145,-0.2368088526814984,-0.1292132395761064,0.2079457165302929,872.7472527472528,799.0109890109891,783.6996336996338,836.8864468864467,903.7728937728937,-0.397095,0.233765,0.896423,3.962708,-4.807587,-0.26168800000000003,34.0,30.0,4.0
697.8733031674208,56.613354520560826,,,,,,,33.924475936625235,34.025016205687734,0.08112268267551022,0.04861122467739205,692.3076923076923,45.61846153846162,0.06589333333333346,67.30769230769226,11.176470588235297,52.941176470588246,11.333333333333336,117.1875,,,0.03905459191478968,0.01808668565352204,0.0011444349571136075,2.1593006404235564,0.6700542932841961,0.31031079264291883,-4.012579210649166,2021-10-14 14:48:10,2021-10-14 14:48:10.979,1.9582652828859308,0.5457600905278875,1.4144939553635991,0.6342890215036929,0.7533612355571864,0.5260352595668584,1.213276538338038,0.05790856868248125,0.5962999992766522,0.6142440337290391,0.8115231064022599,0.2044200780190797,0.5814934985647988,-0.1960093565414717,0.2355213704101433,0.6932344140240989,0.2373509227431145,-0.30078104253314303,-0.1652573060807436,0.2079457165302929,842.1245421245421,797.8021978021977,789.7435897435898,752.6739926739926,669.2673992673992,-0.401855,0.228271,0.8966059999999999,7.065582000000001,-5.480499,-4.0898129999999995,31.0,29.0,2.000000000000004
698.0656770130455,56.50262703620044,,,,,,,33.87082605488236,33.97088779741379,0.08094170634197291,0.048520973269753485,692.3076923076923,45.61846153846162,0.06589333333333346,69.23076923076917,11.111111111111109,53.21637426900586,11.4,117.1875,,,0.0362251368541764,0.016967792625142832,0.0011104313083713851,2.1349351476925813,0.6670883040886826,0.312463029525588,-4.076438283320675,2021-10-14 14:48:11,2021-10-14 14:48:11.979,1.628494471361883,0.8836351181631675,1.1425950846146498,1.116987745493074,0.9172015908446935,0.3926204435418617,0.839116168041062,0.3719083976645226,0.4233022046211996,0.5924950288525663,0.7517364570163859,0.8350686786439441,0.4837200460032591,-0.09621351850367088,0.04493249599843807,0.5883892469540505,0.5154252124032281,-0.4394117637761661,-0.2669829180678275,0.6409251859308541,829.2307692307692,807.8754578754579,777.6556776556778,693.8461538461537,525.4212454212453,-0.420044,0.21557600000000002,0.8886719999999999,4.231873,-4.867401,-0.770111,29.0,27.0,1.9999999999999964
698.0206927575349,56.47949448341115,,,,,,,33.747284636355324,33.84649461052929,0.08091378245577299,0.04834711203622986,692.3076923076923,45.61846153846162,0.06589333333333346,65.38461538461536,11.111111111111109,52.631578947368425,11.4,117.1875,,,0.03461850835199405,0.01619554174950031,0.0010974223975625922,2.1375332105245666,0.6668758693489757,0.31198386348594764,-4.123019275266575,2021-10-14 14:48:12,2021-10-14 14:48:12.978,1.598042188566975,1.20758464069744,1.4980378336293616,1.206080774356333,0.9818014200091316,0.5188236965133342,1.039535328169184,0.716807772864933,0.5914482144418288,0.2282766474761289,0.7896548713550596,1.004859610913964,0.5293017011531851,0.1253036418731672,0.07783979812616848,0.8141245933958444,0.6046371519110619,-0.1787778127047783,-0.1859738632983612,0.60449055223715,702.3076923076924,805.4578754578755,776.8498168498169,833.6630036630037,822.3809523809523,-0.441406,0.240723,0.8688959999999999,5.413208,-5.17395,2.093506,28.000000000000004,30.0,-1.9999999999999964
698.5067873303168,56.72020991396365,,,,,,,33.84180879959481,33.93989220337252,0.08120208843030363,0.04844879020995305,692.3076923076923,45.61846153846162,0.06589333333333346,69.23076923076917,11.176470588235297,52.941176470588246,12.142857142857142,117.1875,,,0.032527198483025564,0.014935620364175941,0.0010586449539352744,2.1778270798208132,0.6703672134941547,0.3078147111428659,-4.204006290568696,2021-10-14 14:48:13,2021-10-14 14:48:13.979,1.5524468510660459,1.290935297223127,1.8074820578379118,1.3126813947427118,1.002492523956809,0.6731631667938296,1.262857844569334,0.9773702144683848,0.5261344532446923,0.2237587102013132,0.9109689944201032,0.8864431877056417,0.6164378369583439,0.1248008941665189,0.1730206847864177,1.020415597960178,0.7444029947417274,-0.1939669458946378,-0.04567879294732245,0.5433752900481781,721.6483516483516,793.3699633699632,780.8791208791209,918.6813186813188,1031.098901098901,-0.389832,0.247009,0.901001,5.129089,-4.321594,-1.6822810000000001,25.0,37.0,-12.0
699.2760180995474,57.3094384622675,,,,,,,34.12513811904429,34.21436994551799,0.08195538954420294,0.04880066988681759,692.3076923076923,45.61846153846162,0.06589333333333346,69.23076923076917,11.764705882352938,52.941176470588246,12.142857142857142,117.1875,,,0.031212702601854526,0.013948603217706702,0.0010255201785461297,2.2376937758350133,0.6757923266503214,0.3020039354572295,-4.2723759034908415,2021-10-14 14:48:14,2021-10-14 14:48:14.982,1.5524468510660459,1.1041372158760678,1.3650052493638631,1.3126813947427118,1.002492523956809,0.114191213321437,0.9953907733408882,0.9773702144683848,0.5261344532446923,0.1505211905512093,0.9003208744919302,0.8864431877056417,0.6164378369583439,0.005847769034630039,0.2242447864063488,1.020415597960178,0.7444029947417274,-0.3212146503577376,-0.09086828113521374,0.5433752900481781,796.1904761904763,816.7399267399268,779.6703296703297,709.1575091575091,647.9120879120878,-0.35742199999999996,0.254639,0.904175,2.415009,-8.8974,0.747681,20.0,40.0,-20.0
701.4932126696832,58.69212281476838,,,,,,,34.053241585652444,34.12697023302111,0.08366741367518424,0.048543935950649486,692.3076923076923,45.61846153846162,0.06589333333333346,69.23076923076917,11.764705882352938,52.352941176470594,12.142857142857142,117.1875,,,0.029214307457865383,0.012594457607895416,0.0009610396705452904,2.319616165094005,0.6830591731242153,0.2944707764168101,-4.374498434186196,2021-10-14 14:48:15,2021-10-14 14:48:15.978,1.5524468510660459,1.466033480682094,0.9056953098981141,1.3126813947427118,1.002492523956809,-0.04530317194935503,0.3571577728588829,0.9773702144683848,0.5261344532446923,0.2934042432485965,0.7106941850553816,0.8864431877056417,0.6164378369583439,-0.1439631994735935,0.3152198763432366,1.020415597960178,0.7444029947417274,-0.3336843913952259,-0.3205903427579591,0.5433752900481781,722.0512820512822,804.2490842490844,794.5787545787546,829.6336996336996,1050.842490842491,-0.371033,0.235779,0.894775,4.61319,-6.280518,1.6000370000000002,22.0,46.0,-24.0
702.6696832579187,58.49471883018109,,,,,,,34.114876462484204,34.19871176577489,0.08324639617148573,0.048550374771131485,692.3076923076923,45.61846153846162,0.06589333333333346,67.30769230769226,11.764705882352938,52.941176470588246,12.142857142857142,117.1875,,,0.02770791471638299,0.011322785877030915,0.0009064941234604297,2.4470934112240417,0.6937872054562658,0.283514802611982,-4.48093813427407,2021-10-14 14:48:16,2021-10-14 14:48:16.978,1.5524468510660459,0.8061386649270846,1.1058723589229842,1.3126813947427118,1.002492523956809,-0.3585091949963619,0.7527066521012113,0.9773702144683848,0.5261344532446923,0.2628095232485704,0.6356370240027363,0.8864431877056417,0.6164378369583439,-0.0102689549854455,0.1249584455448548,1.020415597960178,0.7444029947417274,-0.4486985105775539,-0.2988366645950636,0.5433752900481781,967.4358974358977,805.054945054945,779.2673992673992,738.5714285714287,676.9230769230769,-0.41113299999999997,0.24560500000000002,0.901184,1.3981629999999998,-2.519684,2.243042,25.0,45.0,-20.0
704.1875284478836,57.82620956570774,,,,,,,34.28823837801975,34.37847712566504,0.0821176280885915,0.04869191372019222,692.3076923076923,45.61846153846162,0.06589333333333346,61.53846153846154,11.83431952662722,53.846153846153854,12.071428571428573,117.1875,,,0.0271212289010786,0.01058067205063977,0.0008811466959845815,2.563280363598331,0.7029312238037596,0.2742311117372215,-4.548726333714927,2021-10-14 14:48:17,2021-10-14 14:48:17.978,1.5524468510660459,0.6493947155615379,1.3126687549355245,1.3126813947427118,1.002492523956809,-0.04651727730677877,0.9342609803205204,0.9773702144683848,0.5261344532446923,0.127321568217564,0.6145574616089109,0.8864431877056417,0.6164378369583439,-0.1545705782416137,0.1824161036246904,1.020415597960178,0.7444029947417274,-0.3917000216159697,-0.16502465905351402,0.5433752900481781,960.5860805860806,802.6373626373628,779.6703296703297,814.7252747252749,770.0,-0.360413,0.223206,0.9122309999999999,2.265472,0.19439700000000001,-0.852356,29.0,43.0,-14.000000000000005
704.8702776513428,57.38395753125676,,,,,,,31.815986135831707,31.89788036069438,0.08141066427493937,0.04513736377400378,692.3076923076923,45.61846153846162,0.06589333333333346,61.53846153846154,10.650887573964498,53.846153846153854,11.266666666666667,117.1875,,,0.02531217667401993,0.009320106106425157,0.0008152086866273019,2.7158678651276364,0.7140752596705673,0.2629270992302154,-4.6755812655398765,2021-10-14 14:48:18,2021-10-14 14:48:18.982,1.5524468510660459,0.3880403751818454,0.920833996194072,1.3126813947427118,1.002492523956809,0.1027681422345719,0.6992420016710517,0.9773702144683848,0.5261344532446923,0.1365200160733573,0.3769221368375209,0.8864431877056417,0.6164378369583439,0.0299599216021287,0.2518690353925418,1.020415597960178,0.7444029947417274,-0.32040656579244897,-0.2270904912262905,0.5433752900481781,976.3003663003664,781.6849816849817,783.6996336996338,798.6080586080586,726.4835164835165,-0.445618,0.206848,0.886841,3.424377,-5.600128,-2.803802,34.0,41.0,-7.0
703.823395539372,56.396461810385134,,,,,,,31.72730028768065,31.796159515881328,0.08012871150321163,0.045078496237492334,692.3076923076923,45.61846153846162,0.06589333333333346,61.53846153846154,10.650887573964498,53.846153846153854,11.266666666666667,117.1875,,,0.02745507947471331,0.00967807894423668,0.0008809537846647154,2.8368315275071065,0.7222338727169497,0.2545917393098136,-4.63789185356258,2021-10-14 14:48:19,2021-10-14 14:48:19.979,1.5524468510660459,0.6356052115999514,1.06852745414842,1.668068348168391,1.002492523956809,0.1889354052826089,0.7170429770036681,1.230016651764207,0.5261344532446923,0.4493858390948421,0.4516883009305474,0.9602161599019008,0.6164378369583439,0.1824248716726797,0.1797587000896007,0.6736183162038067,0.7444029947417274,-0.2759030693121638,-0.3861248278793293,0.3633233294927591,831.2454212454213,796.1904761904763,788.9377289377289,772.4175824175826,707.1428571428571,-0.452087,0.20788600000000002,0.8781129999999999,4.172058,-6.1235050000000015,0.755157,41.0,32.0,9.0
701.9909502262442,54.920078624627344,,,,,,,31.74378362367257,31.812448689788862,0.07823473879104449,0.04521964793626168,692.3076923076923,45.61846153846162,0.06589333333333346,61.53846153846154,10.588235294117649,53.529411764705884,11.333333333333336,117.1875,,,0.03131066364832274,0.010610867801743107,0.001005363935709815,2.95081083219029,0.7293950183664552,0.2471846078404996,-4.5458765387732205,2021-10-14 14:48:20,2021-10-14 14:48:20.979,1.5524468510660459,0.7486362387074712,1.136807489351465,1.7088264297259892,1.002492523956809,0.4096121688251359,0.8287078521126962,1.277589942769795,0.5261344532446923,0.5744073466843334,0.4375093116677105,1.0325795123235508,0.6164378369583439,0.05769196319909144,-0.0012698515193304276,0.8419157928285345,0.7444029947417274,-0.3112764520836829,-0.3569995048244427,0.3878908819105911,921.5018315018317,798.2051282051282,786.9230769230769,836.8864468864467,747.8388278388278,-0.488464,0.21221900000000002,0.8537600000000001,8.486175999999999,4.022522,-6.908569,43.0,30.0,13.0
700.9049773755656,53.554862856754035,,,,,,,31.477955214841156,31.563049956154828,0.07640816456644701,0.044910446110264006,692.3076923076923,45.61846153846162,0.06589333333333346,61.53846153846154,10.0,53.529411764705884,11.333333333333336,117.1875,,,0.035081671828272584,0.011492049903408158,0.0011335593952033745,3.0526905228516736,0.7353525709203176,0.24088670810737384,-4.466099795426894,2021-10-14 14:48:21,2021-10-14 14:48:21.978,1.2384792032826593,0.4803816806882583,0.8494993347699505,1.554786812543695,0.5648702935930855,0.3062365260369933,0.6848544367350796,1.345764706844314,0.4233047020617738,0.4508704990904249,0.4475780180447401,0.878338167433343,1.13547266235344,0.1364226217899914,0.2362404059720507,1.034685593434235,0.8059720253319921,-0.2283843963887242,-0.1313703505396503,0.5766822167205305,734.5421245421246,799.4139194139194,792.9670329670329,834.4688644688645,863.0769230769231,-0.561401,0.221985,0.80658,3.8505550000000004,1.256104,-2.086029,45.0,29.0,16.000000000000004
700.0452488687782,53.099690082082006,,,,,,,30.21809546699102,30.30775931177019,0.07585179696296376,0.0431659175115055,692.3076923076923,45.61846153846162,0.06589333333333346,67.30769230769226,9.411764705882351,52.941176470588246,12.142857142857142,117.1875,,,0.0394174196518548,0.012485565014004085,0.0012929384172848278,3.15703931761545,0.7409857253580597,0.2347090583330889,-4.3831821008475575,2021-10-14 14:48:22,2021-10-14 14:48:22.981,1.2384792032826593,0.3014132759178295,0.7749434351658507,1.554786812543695,0.5648702935930855,0.03595960923252154,0.6188885478529171,1.345764706844314,0.4233047020617738,0.1589652263985715,0.3935379525319195,0.878338167433343,1.13547266235344,0.1963863381143328,0.2418122038529148,1.034685593434235,0.8059720253319921,-0.1454096343310524,-0.1716225427707839,0.5766822167205305,807.0695970695973,796.5934065934067,785.7142857142858,761.1355311355313,774.4322344322345,-0.649963,0.19555699999999998,0.7498779999999999,4.0000919999999995,-0.014953999999999999,-0.822449,44.0,30.0,14.0
700.3619909502263,52.936670385803716,,,,,,,30.27019068030453,30.3559935188262,0.07558472771199523,0.04322077878503231,692.3076923076923,45.61846153846162,0.06589333333333346,61.53846153846154,9.411764705882351,52.941176470588246,12.142857142857142,187.5,,,0.04133915749899855,0.012838342722416223,0.0013811563656545886,3.2199761599150056,0.7440633024344897,0.2310772706013233,-4.355319060513672,2021-10-14 14:48:23,2021-10-14 14:48:23.978,1.8582065086741009,0.2155760302030561,0.5915019708635075,2.135545152516021,0.882069104638895,-0.3794141253141031,0.271834858822921,1.1741815408307619,0.8401465548242526,0.3056917206217203,0.4106568248212761,0.5960365767630699,0.7164938111295871,0.1582840171495379,0.1241778586656926,0.675785861885722,0.7882054681008418,-0.02254162272741567,-0.0075537554830075624,0.4039024623565241,862.6739926739926,795.7875457875458,792.5641025641023,811.5018315018315,730.5128205128206,-0.729858,0.201416,0.67865,5.330963,-2.13089,-0.209351,40.0,26.0,14.0
701.9116977696859,52.580501317773425,,,,,,,31.025716707442584,31.103521460294203,0.07491042175938538,0.04420173763455765,692.3076923076923,45.61846153846162,0.06589333333333346,61.53846153846154,10.059171597633137,53.846153846153854,12.071428571428573,187.5,,,0.042868659178824715,0.013111030738708104,0.001477240847806375,3.2696635400496965,0.7461007507328459,0.2281888462203991,-4.334301361970015,2021-10-14 14:48:24,2021-10-14 14:48:24.979,1.7665424103707432,0.7507989592568761,1.268527195721957,2.184857660778983,0.8353614323287215,0.49922413261492105,0.8254313934154934,1.218064578104118,0.8799239980110244,0.4845173093853144,0.5044249684898603,0.9356649701694488,0.9175781565419856,0.2827631403774578,0.1676403342303269,0.8207295795694087,0.6538988655586504,0.1671463350551821,0.1530057581088021,0.4155478081828097,716.8131868131868,787.3260073260074,788.1318681318681,862.2710622710623,912.6373626373628,-0.868347,0.20587199999999997,0.526489,5.3085330000000015,6.8711850000000005,5.17395,8.0,18.0,-10.0
703.3484162895927,53.148442297288845,,,,,,,32.023808586354576,32.1173863689921,0.07556488514990244,0.04553050500247273,692.3076923076923,45.61846153846162,0.06589333333333346,61.53846153846154,10.588235294117649,54.11764705882353,12.142857142857142,187.5,,,0.04261529222496102,0.012976319894347024,0.0015147812866624971,3.2840815093904903,0.7462438035967008,0.22723059749366575,-4.3446291291426835,2021-10-14 14:48:25,2021-10-14 14:48:25.979,1.7665424103707432,0.872576491927173,1.538464609484273,2.184857660778983,0.8353614323287215,0.5844621258920872,1.121240461238028,1.218064578104118,0.8799239980110244,0.4088474512746927,0.6353718227729178,0.9356649701694488,0.9175781565419856,0.2266293544047179,0.4093717180638448,0.8207295795694087,0.6538988655586504,0.08938368874702843,0.1261999105906225,0.4155478081828097,793.7728937728937,804.6520146520148,784.9084249084249,793.7728937728937,693.040293040293,-0.891785,0.287842,0.38739,8.471222000000001,-4.26178,-1.390686,3.0,13.0,-10.0
703.0496131087848,53.16297991762353,,,,,,,31.749494974052013,31.83792026874092,0.07561767893242193,0.045159679177775656,692.3076923076923,45.61846153846162,0.06589333333333346,61.53846153846154,10.650887573964498,53.846153846153854,12.071428571428573,187.5,,,0.04401769348571352,0.013443125470481852,0.0016209828356236284,3.274364550294996,0.7450296394279668,0.22753411478292646,-4.3092874210356245,2021-10-14 14:48:26,2021-10-14 14:48:26.980,0.7811437037937112,0.2690661259036983,0.9443160948470946,1.7402238042088067,0.948371312317265,0.002468633288514834,0.6244420755791199,0.8468618090655126,0.8827175995702091,0.5597042620334052,0.5073961913636771,0.6934901761985439,1.032216308890658,0.3121048851764133,0.4065231073643014,1.017570796839066,0.6231226161214171,0.07602596359965137,0.1087033764469156,0.4574277796388513,853.0036630036632,790.1465201465203,795.7875457875458,784.5054945054945,816.7399267399268,-0.8233030000000001,0.24664299999999997,0.5390010000000001,22.2435,-33.1073,-17.869568,6.0,13.0,-7.0
702.3213472917613,52.88123354973107,,,,,,,31.72174918969613,31.81098091471816,0.07529492554034943,0.04516700127657965,692.3076923076923,45.61846153846145,0.06589333333333322,61.53846153846154,10.650887573964498,53.254437869822496,12.071428571428573,187.5,,,0.0484762408568323,0.01501031191259443,0.0018797004180010587,3.229529215589332,0.7416095996482168,0.22963396524433866,-4.199017853233259,2021-10-14 14:48:27,2021-10-14 14:48:27.985,1.2728954350320438,0.6237260673028163,1.067173454000954,1.0307428505270881,0.7495168541763209,0.2295468490447981,0.7391143631963291,0.2889012368278763,0.6104517401165829,0.5783096655548723,0.5104168019073789,0.4299080505160333,0.8057051450123504,0.2635971696944103,0.2893721980299753,0.7535697029352022,0.4377154417996443,0.01314467330489099,-0.120289951414462,0.3502753364659564,689.4139194139194,803.4432234432236,792.1611721611722,802.6373626373628,857.4358974358977,-0.648193,0.23016399999999998,0.7387699999999999,2.5421139999999998,-6.1235050000000015,4.42627,17.0,17.0,0.0
701.9004524886877,52.54499016586669,,,,,,,31.72723459989233,31.819916170203122,0.07486102905271108,0.04520190076441597,692.3076923076923,45.61846153846145,0.06589333333333322,61.53846153846154,10.588235294117649,54.11764705882353,11.333333333333336,187.5,,,0.0518454234609588,0.01635074016588233,0.00210427388029862,3.1708303682263965,0.7374836530098884,0.2325837611497331,-4.113482112578987,2021-10-14 14:48:28,2021-10-14 14:48:28.978,1.754678546041204,0.8890995195004547,1.186669722073312,1.272616394803902,0.9496200445102814,0.4963873454130425,0.8724031993019141,0.7792036482002459,0.927621519539686,0.675892435063913,0.4584645179912989,0.8556207734141649,0.7491085036251982,-0.007542222813959519,0.1593112658530224,0.780110607485653,0.4054079806832495,-0.3452261735546667,-0.385116505245091,0.3139417659303367,734.945054945055,799.4139194139194,794.981684981685,819.96336996337,796.1904761904763,-0.641479,0.241882,0.723022,4.142151,-6.385193,1.973877,33.0,29.0,4.000000000000004
701.1834319526628,52.29314600584386,,,,,,,31.68842218082097,31.78285748026926,0.07457841075938912,0.04519277087391345,692.3076923076923,45.61846153846145,0.06589333333333322,61.53846153846154,10.650887573964498,53.846153846153854,11.266666666666667,187.5,,,0.05544469676667525,0.017911963471847068,0.0023605048521864232,3.0954002811483976,0.7322606003573009,0.2365641060437041,-4.022286438999561,2021-10-14 14:48:29,2021-10-14 14:48:29.979,1.9406373368067398,0.9164346022915746,1.5540750729652355,1.644704165727086,1.190484120924155,0.6370778291320306,1.02433600390212,1.0677692286147809,0.9931661723548896,0.6879151290321479,0.5750761750846737,0.9856968697414736,0.7398576159307505,-0.09537459891209082,0.167674493522977,0.7930258634662593,0.3727174642955401,-0.3654141073310561,-0.3576188844673596,0.3559324415738094,917.4725274725276,801.025641025641,788.5347985347986,790.5494505494507,668.4615384615385,-0.6525880000000001,0.24041700000000002,0.73175,3.603821,-4.837494,0.059814,42.0,43.0,-1.0
700.6787330316741,52.23104933680534,,,,,,,31.30507471339953,31.397807648762356,0.07454350599569895,0.0446782144763403,692.3076923076923,45.61846153846145,0.06589333333333322,61.53846153846154,10.0,53.529411764705884,11.333333333333336,179.6875,,,0.05965508883320901,0.019983147090420324,0.002698116213841601,2.985269965900763,0.7245291694925627,0.2427013897464869,-3.9128660061323983,2021-10-14 14:48:30,2021-10-14 14:48:30.979,1.445062204960311,0.6625497988246789,1.221477077563622,1.370140122336674,1.12261272006881,0.3369760212839484,0.7558750213566309,0.8422824752396356,0.7849435898281275,0.2096986589657186,0.6865340426230183,0.8444476239728511,0.8041616184258511,0.001446276300718364,0.0576564877577385,0.5073821563998615,0.3485455010971607,-0.4788848269582321,-0.2719320093358134,0.4099307437598076,868.7179487179487,801.025641025641,788.9377289377289,756.3003663003664,717.2161172161173,-0.6518550000000001,0.24395799999999998,0.7382810000000001,4.463654,-5.435638,1.59256,47.0,52.0,-5.0
700.950226244344,52.105978984040576,,,,,,,31.305074713399524,31.395417983818728,0.07433620396018957,0.04466090963566777,692.3076923076923,45.61846153846145,0.06589333333333322,61.53846153846154,10.0,53.529411764705884,11.333333333333336,179.6875,,,0.06246117247243566,0.021601229424251314,0.0029594437459722024,2.891556366801587,0.7177642810395235,0.2482276635794785,-3.8350050481223614,2021-10-14 14:48:31,2021-10-14 14:48:31.981,1.574449281281949,0.5225998426807364,0.6831644280714182,1.178775459175337,1.009026281294257,-0.1028044952381565,0.2751793474636273,0.8923251301154111,1.321034833905464,0.2750282252480527,0.5365602403027874,1.029504508368332,0.7235347326769423,-0.0020041266900147603,0.1723314426576931,0.6462840655905403,0.1795989569620344,-0.5204163560824334,-0.2504078363684734,0.3436532080073266,733.3333333333335,777.6556776556778,799.0109890109891,780.0732600732601,693.8461538461537,-0.650818,0.24829099999999998,0.733154,3.252411,-3.887939,2.7215580000000004,47.0,62.0,-15.0
701.5837104072397,51.57032730346696,,,,,,,31.32184678784863,31.41373410280849,0.07350559389916929,0.04464448977822992,692.3076923076923,45.61846153846145,0.06589333333333322,61.53846153846154,10.0,53.529411764705884,10.0,179.6875,,,0.0653845307112923,0.0233552656373514,0.0032314136069108326,2.79956270789422,0.7109238939325648,0.253941050124685,-3.7569328111963065,2021-10-14 14:48:32,2021-10-14 14:48:32.978,1.4380760512561381,0.5554176943896595,0.6059839540506606,1.105683669174854,0.7699053916187639,-0.07724928661296525,0.2644149416054271,0.7672236135060191,1.072568951750543,0.4163685362954681,0.5144693463314783,0.9500684891140724,0.6144225045743515,0.02546690020574609,0.1699661174549341,0.7382344015264788,0.3250467765163925,-0.4040747173983034,-0.1933269417650343,0.3908301387242843,853.809523809524,798.2051282051282,780.8791208791209,782.8937728937732,762.3443223443222,-0.6445310000000001,0.24548299999999998,0.740845,3.843079,-5.435638,-0.568237,51.0,70.0,-19.0
702.5034137460173,51.38645710668492,,,,,,,31.660622875372802,31.75195271234407,0.07314762619112787,0.045068283307758215,692.3076923076923,45.61846153846145,0.06589333333333322,61.53846153846154,10.650887573964498,54.4378698224852,9.941176470588236,179.6875,,,0.06881187842001814,0.025509058976010583,0.0035488253117893468,2.6975467219206606,0.7030964060416719,0.260642902059196,-3.668721635944305,2021-10-14 14:48:33,2021-10-14 14:48:33.979,1.239209301053767,0.5170335097602503,0.6453053491905429,1.182532853766937,0.8224159321439835,-0.1630827096581301,0.5280489593904942,0.8687130552839143,0.8053452731165781,0.3438844687747881,0.622928216658703,0.9282928559009598,0.5379218677943259,-0.01890741643804101,0.06760971682131031,0.7181065707200074,0.2311000480481638,-0.4023290116294251,-0.4635871537887942,0.3640730006651791,697.8754578754579,792.9670329670329,785.3113553113553,786.1172161172162,831.2454212454213,-0.639954,0.2472530000000001,0.741638,4.852448000000001,-5.570221,2.639313,54.0,74.0,-20.0
703.1406463359125,51.5429321306314,,,,,,,31.743947757276203,31.831394621519546,0.07330387227537365,0.0451459433083479,692.3076923076923,45.61846153846145,0.06589333333333322,53.84615384615381,10.650887573964498,55.02958579881657,9.941176470588236,179.6875,,,0.06598162593083835,0.02504567410976429,0.0034811522624439524,2.634451987264132,0.6981558191140895,0.26500988535347025,-3.687054156592908,2021-10-14 14:48:34,2021-10-14 14:48:34.979,1.083505635668431,0.5100593834005465,0.7081631289268482,1.0724438289309781,0.7698158808415678,-0.1628377065417769,0.3627839623232254,0.3878823640228348,0.9299248956675163,0.3181732278415636,0.5251451121235925,0.8478610948369248,0.6077436662600016,0.02450337883256283,0.1409224477748423,0.8290982252594986,0.3390614585288044,-0.4417115384339891,-0.3779216723761518,0.4385622948788493,718.8278388278387,800.6227106227108,799.8168498168499,818.7545787545787,709.5604395604396,-0.632935,0.25201399999999996,0.738342,3.611298,-4.702911,0.500946,60.0,78.0,-18.0
704.688211197087,50.818272087809454,,,,,,,31.34196807936914,31.42086918100767,0.07211454836385311,0.04447636214337553,700.0,45.61846153846145,0.06516923076923066,53.84615384615381,10.059171597633137,55.02958579881657,9.941176470588236,171.875,,,0.0635802192894614,0.024508973517457483,0.0033893191397084983,2.5941608384444947,0.6950290066650509,0.2679205530994765,-3.7087159624718082,2021-10-14 14:48:35,2021-10-14 14:48:35.981,1.34565639468225,0.2422584720840031,0.4369027327754288,0.776741896150515,0.9322147811011876,-0.1126990188332361,0.1274129891309026,0.2431985449398319,0.9749136760036994,0.154026779603567,0.4029129059513231,0.5986409691205545,0.5947384625028546,-0.08189468308462737,0.1344495784315801,0.6629552984249334,0.3177691704738723,-0.4030541286879957,-0.2568826533325522,0.317231288433851,800.6227106227108,794.1758241758242,787.3260073260074,782.4908424908424,982.3443223443223,-0.4868770000000001,0.20239300000000002,0.852783,4.11972,-5.039368,-1.286011,65.0,83.0,-18.0
706.3186813186812,49.882556529238364,,,,,,,31.38490439801538,31.46830892297255,0.0706233005703725,0.04443448152811202,700.0,45.61846153846145,0.06516923076923066,53.84615384615381,10.119047619047619,54.76190476190477,9.882352941176473,156.25,,,0.061429137048527364,0.023783042900366952,0.0032500557941719296,2.582896448779461,0.694410858289236,0.2688496701512667,-3.7387824354193313,2021-10-14 14:48:36,2021-10-14 14:48:36.978,1.480359160262404,0.5048763546183428,0.9850248074523256,0.7380584673141235,1.025784476908703,0.3081709061623668,0.4174758170552367,0.5249592284249467,0.9950027731821468,0.4609139719736591,0.5299097931667612,0.8450292944843748,0.6323060447618564,-0.05646668264682792,0.06936080586580473,0.6605178702433974,0.2620127913158622,-0.4425714144342456,-0.3901317835345768,0.3654506187324931,833.2600732600732,803.040293040293,789.3406593406594,761.5384615384613,706.7399267399268,-0.334839,0.230408,0.9151610000000001,3.611298,-9.95163,-1.831818,70.0,86.0,-16.0
707.1461083295402,49.515644733037995,,,,,,,31.364435442884787,31.45414441534951,0.07002180193002347,0.044353543169424484,700.0,45.61846153846145,0.06516923076923066,53.84615384615381,10.059171597633137,54.4378698224852,9.941176470588236,156.25,,,0.06052320509955695,0.023201177988338,0.003131948216016018,2.608626386555836,0.6968197273700841,0.26712132138251266,-3.763552226239501,2021-10-14 14:48:37,2021-10-14 14:48:37.978,1.4154323757399658,0.5611065951748136,1.108073569056177,1.505597009970473,1.1124231474175341,0.2703590102276755,0.5029499436701087,1.029531263700928,0.8196499426155821,0.4724852555223184,0.588857194679886,1.2698869374832271,0.7217625540827374,0.02937412480251273,-0.037295475431172016,0.987624441796204,0.2108644844925381,-0.37456821802512497,-0.3410328802978899,0.4397818431007792,723.2600732600732,803.8461538461539,786.5201465201468,814.3223443223442,684.981684981685,-0.730225,0.202576,0.694702,8.860016,25.159454,-10.235748,63.0,89.0,-26.0
707.7378243058715,49.56486510980477,,,,,,,31.364435442884787,31.45414441534951,0.07003280509758895,0.044316460652143466,700.0,45.61846153846145,0.06516923076923066,53.84615384615381,10.059171597633137,54.4378698224852,9.941176470588236,156.25,,,0.06038860474516165,0.022650875788451826,0.003014193210383557,2.6660604785952597,0.7017551037369194,0.2632179987554792,-3.787556761643797,2021-10-14 14:48:38,2021-10-14 14:48:38.978,1.4827646509651398,0.09015679235488602,0.4670281204297739,1.8070241734086216,1.1837726859666409,-0.0728947492581282,0.3629956447927641,1.256420781977433,0.7550952329630899,0.4308610035882124,0.5602186910361489,1.2478955382600128,0.7219388623716263,0.5392978590263338,0.39121311162112105,1.170734567864669,0.2177402544675958,0.3205268093630307,0.3603488838806245,0.4833709681597402,761.5384615384613,786.1172161172162,808.6813186813188,801.4285714285713,915.8608058608058,-0.8318479999999999,0.184265,0.539856,-2.654266,-12.598419,18.086395,62.0,87.0,-25.0
708.1043956043958,49.65429100656226,,,,,,,31.570632163794688,31.66473905637813,0.0701228396756107,0.04458471428757039,700.0,45.61846153846145,0.06516923076923066,53.84615384615381,10.119047619047619,55.35714285714286,9.882352941176473,156.25,,,0.0602421815722965,0.021866993427234808,0.0028636277405085933,2.7549366479100104,0.7089583917409126,0.2573410870550337,-3.8227769284931887,2021-10-14 14:48:39,2021-10-14 14:48:39.978,1.4827646509651398,0.9219162524496324,1.4930333722304032,1.8070241734086216,1.1837726859666409,0.4292724120646401,0.9660118052262544,1.256420781977433,0.7550952329630899,0.3869665466917085,0.7693331162035925,1.2478955382600128,0.7219388623716263,0.1984292079913764,0.348855304629047,1.170734567864669,0.2177402544675958,-0.08985685706173058,0.015596942917927731,0.4833709681597402,5.641025641025642,796.5934065934067,797.3992673992674,801.025641025641,773.6263736263736,-0.754883,0.276794,0.622742,4.149628,-8.822632,2.803802,65.0,85.0,-20.0
708.6481565771505,49.65501772147333,,,,,,,31.593804743469853,31.683463374093893,0.07007005840714041,0.044583203173873265,700.0,45.61846153846145,0.06516923076923066,53.84615384615381,10.059171597633137,55.621301775147934,10.5625,156.25,,,0.060559193096058526,0.02082333202400167,0.00267000044410895,2.908237405342045,0.7204922480268026,0.24774189572809785,-3.871681189022872,2021-10-14 14:48:40,2021-10-14 14:48:40.985,1.4827646509651398,0.937698377129566,1.403028123116875,1.255333179329207,1.1837726859666409,0.3144816725842304,0.9382736649638458,1.160840752252261,0.7550952329630899,0.2754685094542237,0.7700583812590809,1.488777426762617,0.7219388623716263,-0.1282928560380978,0.2637820285806229,0.5285369245435835,0.2177402544675958,-0.4590544398540321,-0.2980941641411325,0.3206292744626122,808.2783882783882,756.7032967032968,772.4175824175826,806.6666666666667,757.5091575091576,-0.491943,0.26532,0.8423459999999999,4.029999,-5.607605,2.631836,64.0,85.0,-21.0
709.5695970695972,49.20439920058561,,,,,,,31.497597415529732,31.585705405300818,0.06934400713304444,0.04438972236917915,700.0,45.61846153846145,0.06516923076923066,53.84615384615381,9.523809523809524,55.95238095238096,10.5,148.4375,,,0.06122480363527132,0.019999230939638433,0.0025226706164192085,3.061357900214248,0.7310711925370225,0.2388061822127556,-3.9120614591855607,2021-10-14 14:48:41,2021-10-14 14:48:41.978,1.4827646509651398,1.3761460032004478,0.9395784744568241,1.661459408518301,1.1837726859666409,0.1104791050719788,0.7262783775031328,1.615939522515353,0.7550952329630899,0.1446426230377863,0.6733863536126226,1.380592442029882,0.7219388623716263,0.008010000322555453,0.3473438873747538,0.8353129065520547,0.2177402544675958,-0.3509142589098723,-0.4398191666142302,0.3010000995419836,957.3626373626372,795.7875457875458,815.934065934066,879.5970695970697,770.8058608058608,-0.432983,0.25885,0.8656010000000001,0.112152,-34.595184,4.545898,75.0,90.0,-15.0
710.2564102564102,48.79344760435849,,,,,,,31.50322148439261,31.590367866105474,0.0686983558328513,0.04435471616936144,700.0,45.61846153846145,0.06516923076923066,53.84615384615381,9.523809523809524,55.95238095238096,10.5,148.4375,,,0.06217211305381694,0.01920496338790116,0.0023858512046865234,3.2372940160346486,0.7422390167195352,0.22927760439526015,-3.95258652356978,2021-10-14 14:48:42,2021-10-14 14:48:42.978,1.4827646509651398,1.2583982185181708,1.539038811354315,1.661459408518301,1.1837726859666409,0.3842344780348503,0.927397296636881,1.615939522515353,0.7550952329630899,0.2186271410540317,0.7388647641799596,1.380592442029882,0.7219388623716263,0.1458871601308104,0.2474886803110391,0.8353129065520547,0.2177402544675958,-0.3378669978179548,-0.3870607183455481,0.3010000995419836,813.1135531135533,800.2197802197803,796.1904761904763,788.5347985347986,812.7106227106227,-0.294128,0.253784,0.9390870000000001,3.3570860000000002,-7.0132449999999995,1.009369,81.0,94.0,-13.0
711.6536158452327,48.33328341875554,,,,,,,31.64305989418127,31.731144750554687,0.06791686621496329,0.0444641314111764,707.6923076923077,45.61846153846145,0.06446086956521728,57.692307692307615,9.580838323353293,56.2874251497006,10.4375,140.625,,,0.06366096628981335,0.018289730835359855,0.002235116104970244,3.4806945418101227,0.7561958939064924,0.21725431083453686,-4.001415533179731,2021-10-14 14:48:43,2021-10-14 14:48:43.979,1.4827646509651398,1.1839459284593479,1.104165568794711,1.2621695465845129,1.1837726859666409,0.6810752393869429,0.6122759264095806,0.7409540872903538,0.7550952329630899,0.8526832551737147,0.5993926172234035,0.9976689873915452,0.7219388623716263,0.2724373806365617,0.001108234438828109,0.6862144647473147,0.2177402544675958,-0.3728407668444432,-0.4912090669699507,0.3018632604044344,872.3443223443222,793.3699633699632,799.4139194139194,799.4139194139194,677.3260073260074,-0.250244,0.256104,0.9422,4.650574,-3.551483,2.758942,87.0,96.0,-9.0
712.8512206356517,48.315483113000276,,,,,,,31.659952711414913,31.749079422065503,0.0677777938991494,0.044413128286690216,707.6923076923077,45.61846153846145,0.06446086956521728,53.84615384615381,9.580838323353293,56.2874251497006,10.4375,156.25,,,0.06501626870711473,0.017634330900954905,0.002133216411220527,3.6869144098682005,0.7668476338965696,0.207991710315831,-4.037907657553194,2021-10-14 14:48:44,2021-10-14 14:48:44.984,1.4827646509651398,1.152746057562767,0.8357634604232814,0.6975680416490915,1.1837726859666409,0.6493612998488513,0.3236902609870888,0.5056697453316085,0.7550952329630899,0.8540209508297928,0.367229138033711,0.9375333993723742,0.7219388623716263,0.1164654353045077,-0.02779985830978865,0.5554908321710469,0.2177402544675958,-0.3693031586915201,-0.6331846087343392,0.3242065790352801,909.4139194139194,792.9670329670329,783.2967032967032,810.2930402930403,735.7509157509156,-0.262085,0.26617399999999997,0.9408569999999999,5.390778,-5.226287999999999,-2.4748229999999998,91.0,95.0,-4.0
713.5882081989868,48.34869327678865,,,,,,,31.659952711414913,31.744724304455538,0.06775433327130659,0.04436725880227328,707.6923076923077,45.61846153846145,0.06446086956521728,53.84615384615381,9.580838323353293,56.2874251497006,10.4375,156.25,,,0.06670113020924974,0.01688938493608201,0.002028302682766188,3.94929303001149,0.7790475493736625,0.19726253368730048,-4.081069964688024,2021-10-14 14:48:45,2021-10-14 14:48:45.985,1.3898941302203291,0.4255777228300591,1.019032710359022,1.077765141986216,1.034783656741409,0.2701621400532948,0.2866519823654917,0.7728437033374762,0.6890703415665406,0.1165657713136568,0.2234813399260391,0.9254606671278368,0.7690198212145686,-0.4313413293121252,0.027258794595221385,0.7340550790934829,0.332823857335299,-0.5183387871653805,-0.4797742297839162,0.4897638111529265,742.1978021978023,789.3406593406594,775.2380952380953,788.5347985347986,738.1684981684982,-0.276428,0.24408000000000002,0.9370120000000001,2.1682740000000003,-2.15332,5.802002,86.0,92.0,-6.0
714.4114921223355,48.08822570541632,,,,,,,31.750100066341528,31.845069761930805,0.06731166314606499,0.04444231429147372,707.6923076923077,45.61846153846145,0.06446086956521728,53.84615384615381,9.63855421686747,56.62650602409639,10.375,156.25,,,0.06791702687328317,0.0163434024375176,0.00195906766779158,4.1556234776042835,0.7877223743273108,0.1895557618664319,-4.1139309837163625,2021-10-14 14:48:46,2021-10-14 14:48:46.978,1.394360820959485,0.952378050059499,1.640832436465261,1.6687523602590737,0.8840091210475686,0.4295897880887357,1.040524997898937,0.82521477778241,0.5318963149022565,0.1778590503488164,0.4374308230972803,0.8887049850152141,0.8069954859806788,-0.2983101060922133,0.2099990405840595,0.8935008285333728,0.1718330895735831,-0.3481482695372489,-0.3235412927203485,0.6534841165644808,764.7619047619047,786.9230769230769,820.3663003663004,854.2124542124542,709.5604395604396,-0.293579,0.247986,0.9295040000000001,3.902893,-3.140259,0.5233760000000001,71.0,82.0,-11.0
714.6476278212805,47.90643381821746,,,,,,,31.704956220573102,31.80075084913201,0.06703504210077353,0.044364460170714916,707.6923076923077,45.61846153846145,0.06446086956521728,53.84615384615381,9.580838323353293,56.886227544910184,11.133333333333333,164.0625,,,0.06894135347082345,0.015835542066712362,0.0019009807328829664,4.353583425208028,0.7953742804650554,0.18269416312541426,-4.1454983673884716,2021-10-14 14:48:47,2021-10-14 14:48:47.978,1.394360820959485,0.8440366468222223,1.277790387021499,1.5472616418352008,0.8840091210475686,0.501968865807029,0.5309875505074605,0.9544148209593706,0.5318963149022565,0.43454383681710995,0.5196562197989302,0.9477409984026408,0.8069954859806788,-0.076438744419315,0.1083945084979916,0.8009190229415493,0.1718330895735831,-0.4372183884387038,-0.4441599267949148,0.8138263394801809,746.6300366300368,813.5164835164835,754.2857142857142,760.3296703296703,998.0586080586079,-0.360901,0.22296100000000002,0.8995360000000001,7.073059,-6.048737,-10.975952000000001,57.99999999999999,73.0,-15.000000000000007
714.8748841519923,47.99838278138007,,,,,,,31.710543105094924,31.805837169107637,0.06714235434123174,0.044358172049520216,707.6923076923077,45.61846153846145,0.06446086956521728,53.84615384615381,9.63855421686747,56.62650602409639,11.066666666666665,117.1875,,,0.06853475808681121,0.014959850541509782,0.0018088186814657493,4.581246175999198,0.8034232650221818,0.17537220969072906,-4.202385297026502,2021-10-14 14:48:48,2021-10-14 14:48:48.978,1.1513124699553179,0.9131804818135402,1.313618533955338,1.48305636655349,0.8374658372631395,0.5620459511715896,0.7105930663946878,0.8870289445119404,0.7299631730458663,0.4769387977639653,0.5142226375168382,0.9481517292896772,0.8366178536461953,-0.00025080899367377444,0.0778210308292565,0.6828557261639076,0.5394150302900153,-0.6742753646080699,-0.3188700603971008,0.7934854639572444,875.5677655677656,794.981684981685,794.981684981685,799.0109890109891,741.7948717948718,-0.351196,0.233704,0.917358,5.52536,-5.121613,2.287903,54.0,67.0,-13.0
715.0621833256564,47.81050030199234,,,,,,,31.7947721405157,31.890432459134782,0.06686201762150562,0.044464345733741036,707.6923076923077,34.21384615384618,0.048345652173913074,53.84615384615381,9.580838323353293,56.886227544910184,10.4375,117.1875,,,0.06637877499190806,0.014002435847313505,0.001709177664076643,4.740516272720038,0.8086059306351207,0.17057338992555646,-4.268523975407404,2021-10-14 14:48:49,2021-10-14 14:48:49.979,1.052934681899043,1.117524380099003,1.5048089080661082,1.595551694368242,1.096835430432386,0.6322564034248064,0.8995233802981532,0.7460508987748072,1.0529163967033308,0.47976905881983795,0.7059085011743109,0.8364906998890494,0.8709352912132415,0.043669753494763035,0.1940272895761379,0.7376539956211751,0.7356840158552055,-0.5582589490239379,-0.2315560650525113,0.7133163831657771,815.1282051282053,792.5641025641023,814.3223443223442,813.1135531135533,791.7582417582418,-0.336548,0.255371,0.9234620000000001,4.172058,-2.3626709999999997,6.57959,54.0,63.0,-9.0
715.6163113994438,47.94073726981298,,,,,,,31.88535137112727,31.978278335058175,0.06699223663035447,0.0445564904868825,711.5384615384614,39.91615384615382,0.05609837837837834,53.84615384615381,9.63855421686747,57.228915662650614,10.375,117.1875,,,0.06430039558939063,0.013119186862270022,0.0016251644834672759,4.901248550267594,0.8134682959028511,0.1659716473383987,-4.333679474347972,2021-10-14 14:48:50,2021-10-14 14:48:50.978,0.9165945819716792,1.109180056780438,1.419799172238285,1.8063575554102391,1.123974905041296,0.3902459270282221,0.943953287585672,0.8724929995207903,0.9451037125777252,0.1962161772719587,0.7473987071071907,0.8908175117915167,1.05414878683017,-0.1103194594124735,-0.09099959135137048,0.8657241227405246,0.8643630478520794,-0.5604912202477709,-0.3737105396080712,0.8187221887245016,852.1978021978023,799.8168498168499,802.6373626373628,820.7692307692308,782.8937728937732,-0.32074,0.25854499999999997,0.917542,3.506622,-4.388885,4.0000919999999995,60.0,63.0,-3.0
716.2137263933672,47.74840448170033,,,,,,,31.777950991922488,31.870001567958408,0.06666781537704765,0.04436936883623624,715.3846153846154,45.61846153846145,0.06376774193548376,53.84615384615381,9.580838323353293,56.886227544910184,10.4375,117.1875,,,0.06305363275023745,0.012631283023571322,0.001584106860520323,4.991862871932538,0.8160273108233153,0.16347149987062853,-4.371578762381613,2021-10-14 14:48:51,2021-10-14 14:48:51.979,1.2922175522543278,0.8487161672083492,1.144719032779995,1.6298565374030185,0.7973608694170269,0.1415434100474703,0.6382612716776009,0.9624714112998328,0.8251863909514306,0.3311497256149468,0.7512160341824791,0.8018178242947323,0.7488789322714542,0.0002976601715935469,0.0036379484993995523,0.9170136342547134,0.4739553521442477,-0.4285132778726312,-0.4212353516891459,0.8881672389719122,744.6153846153846,803.040293040293,794.1758241758242,773.6263736263736,718.4249084249085,-0.303101,0.256287,0.9375610000000001,4.5159910000000005,-7.11792,-2.714081,66.0,60.0,6.0
717.1455050973124,47.44616988811553,,,,,,,31.857221368852812,31.950777665967284,0.06615975356587832,0.04442225621218943,715.3846153846154,45.61846153846145,0.06376774193548376,59.615384615384635,9.63855421686747,57.228915662650614,10.375,117.1875,,,0.06206131797108243,0.012305973479932336,0.001562060872916783,5.0431863901126865,0.8173560826163115,0.16207136111779682,-4.397670485717978,2021-10-14 14:48:52,2021-10-14 14:48:52.987,1.4168195388042732,0.8007428745687116,1.2483056266463992,1.172170259292802,0.6857247170067032,0.1451261942273956,0.4751205358196895,0.5041502638692761,0.8774586756913594,0.4066806535451971,0.7279378441698684,0.4883918606552627,0.6823811147280805,-0.02843126530858983,0.1162014714931187,0.6566677305764662,0.375510243624036,-0.4234881991323779,-0.5387841953229371,0.5021475678742834,885.6410256410257,804.6520146520148,787.3260073260074,784.9084249084249,762.7472527472528,-0.295471,0.250793,0.9366459999999999,3.8356019999999997,-8.994598,-0.8822629999999999,65.0,54.0,11.0
717.5162187210381,47.30974093787852,,,,,,,31.829066505757538,31.925102700527052,0.06593543073103968,0.04436006556408213,715.3846153846154,45.61846153846145,0.06376774193548376,59.615384615384635,9.63855421686747,56.62650602409639,9.764705882352944,117.1875,,,0.061296393145207476,0.012133582193208805,0.0015557233477421074,5.051796919422133,0.8174411150285406,0.1618119508893573,-4.411778282788591,2021-10-14 14:48:53,2021-10-14 14:48:53.979,1.290965055593915,0.5025940604862706,0.722163065218659,1.608138203763931,0.5943034888875199,-0.08505007887578947,0.03923465062067106,0.7805874776131858,0.8950704507860888,0.1031548204602363,0.4150888802113688,1.192203978034401,0.6161940630515198,-0.02081347727754906,0.02406092278192001,0.7612275325328789,0.3937650625388386,-0.3134781744021092,-0.43197486326023,0.349671987646242,677.7289377289378,799.8168498168499,794.5787545787546,803.040293040293,1189.047619047619,-0.272461,0.24951199999999998,0.940552,4.478607,-4.28421,-1.368256,56.99999999999999,43.0,13.999999999999993
717.8554778554777,47.40325678300341,,,,,,,31.914655640066748,32.011539336009925,0.06603454071927674,0.04445832987916818,715.3846153846154,45.61846153846145,0.06376774193548376,61.53846153846154,9.696969696969695,56.96969696969697,9.166666666666666,117.1875,,,0.060597507946565016,0.012119825356130471,0.0015650765573845507,4.999866430906406,0.8157719715974185,0.16315875291283147,-4.41291270800498,2021-10-14 14:48:54,2021-10-14 14:48:54.980,1.2046892135602558,0.4361155678998964,0.8533531359843984,1.4740826797674869,0.6988350266007023,0.1258623361410904,0.4344799348174021,0.7890344540558303,0.7658166584795059,0.4188763782204817,0.4725708358396305,1.090715657677584,0.6642231221620176,-0.0003688331193883037,0.0400300697391132,0.7231119496915203,0.4064846316949579,-0.2221858238225755,-0.5321677259726836,0.4481074605925197,819.96336996337,779.6703296703297,785.3113553113553,819.1575091575091,689.8168498168499,-0.367798,0.249146,0.908386,5.458069,-2.347717,1.188812,47.0,36.0,11.0
718.3503243744208,47.3251727372625,,,,,,,31.614270138422512,31.704681171534986,0.06588035270740064,0.04400954390318396,715.3846153846154,45.61846153846145,0.06376774193548376,61.53846153846154,9.036144578313252,56.62650602409639,9.222222222222221,117.1875,,,0.060154920831895824,0.012252830352310085,0.0015828822860642494,4.90947145290023,0.8130072417350827,0.16559974928763568,-4.401998319510978,2021-10-14 14:48:55,2021-10-14 14:48:55.978,1.171198149111459,0.7558037282077268,1.241763630807789,1.294485117583625,1.004328876613254,0.4251949092164518,0.907212653185798,0.8936817563680487,0.7705476850149694,0.5437577561413658,0.739482277628482,1.0042956357728121,0.5951227715486197,0.1508996878265109,0.1276067891785586,0.7712417198898008,0.4786543113342597,-0.3109506243493061,-0.1079287483622761,0.4045728205877449,761.1355311355313,804.2490842490844,796.9963369963368,772.0146520146519,1013.3699633699632,-0.383667,0.25885,0.896912,4.0898129999999995,-2.459869,2.071075,42.0,32.0,10.0
718.7210379981465,46.93500205505824,,,,,,,31.750100066341528,31.84397108305876,0.06530350382644466,0.044175832329571264,715.3846153846154,45.61846153846145,0.06376774193548376,61.53846153846154,9.036144578313252,57.228915662650614,9.222222222222221,117.1875,,,0.05980036723208777,0.012509636523282129,0.0016067210239009905,4.780344106784494,0.8090234978709192,0.16923959443060055,-4.381256009818934,2021-10-14 14:48:56,2021-10-14 14:48:56.978,1.168110295490278,0.4159274314784293,0.5453285388809194,1.269880268428027,0.947522562626278,0.0007423377908682275,-0.01344515258291197,0.6411771383771042,0.9925258371751752,0.4205963615914812,0.4000063842939152,0.8759007361763037,0.4816976132002811,0.0671482623855603,0.1341612721327722,0.5182267997594119,0.3593983357469216,-0.2611799631108815,-0.08179469896186672,0.3350526782198779,751.0622710622711,788.9377289377289,787.3260073260074,802.6373626373628,1094.358974358974,-0.394958,0.269226,0.904724,4.149628,-6.8487550000000015,-0.067291,42.0,32.0,10.0
719.3697868396664,46.12837596794054,,,,,,,31.750100066341528,31.845069761930805,0.06412331572971894,0.04413599326408466,715.3846153846154,45.61846153846145,0.06376774193548376,61.53846153846154,9.036144578313252,57.228915662650614,9.222222222222221,117.1875,,,0.059514755337173625,0.013007578887143966,0.001642506155457601,4.575390689807387,0.8024658993724921,0.17538740487454946,-4.342223100075253,2021-10-14 14:48:57,2021-10-14 14:48:57.978,0.9151303320928068,0.5128723619558656,0.4715932291304932,1.060672233242821,0.4958182985750073,0.09823502341686566,0.005613208110927318,0.3077043889750617,0.8205478331018871,0.3634833366936037,0.2085004515071231,0.6842279309755429,0.4068507797771768,0.04023865810960139,0.006417828703267966,0.5464939738950162,0.2202399260438147,-0.43716317452070297,-0.2710937969247356,0.2516376479189571,863.8827838827838,796.5934065934067,793.3699633699632,811.9047619047618,779.2673992673992,-0.363647,0.263123,0.903442,4.598236,-5.203857,1.3383479999999999,46.0,37.0,9.0
720.0932400932402,45.441563460131604,,,,,,,31.619353544075576,31.715883058131123,0.06310511046353898,0.043910082449852464,715.3846153846154,45.61846153846145,0.06376774193548376,61.53846153846154,8.484848484848486,57.57575757575758,9.166666666666666,117.1875,,,0.05941185672000127,0.01353767718531465,0.0016735385031383734,4.388630036506545,0.7961593486101265,0.18141409551211304,-4.302278578259451,2021-10-14 14:48:58,2021-10-14 14:48:58.979,1.0637250051675509,0.4935673996566693,0.23513749006258,1.180558848451582,0.6091734211156695,0.02027266054373128,-0.02444172597527178,0.7320860054788028,1.029985483773745,0.4011786386670864,0.2493239140924094,0.8536260984385728,0.5530688330178657,0.012880310558785071,-0.005342282904207954,0.6438992525874354,0.3085970950356275,-0.3678677016237047,-0.1997329038048032,0.1827386245866198,853.0036630036632,812.7106227106227,787.7289377289377,817.948717948718,743.0036630036632,-0.347168,0.26123,0.916809,3.3570860000000002,-7.6263429999999985,2.108459,50.0,39.0,11.0
720.4819277108434,45.48508666304621,,,,,,,32.20429675407339,32.300165081835075,0.06313147479988017,0.04469827141451658,715.3846153846154,45.61846153846145,0.06376774193548376,59.615384615384635,9.036144578313252,57.83132530120483,9.222222222222221,117.1875,,,0.0594278809357147,0.014342483753069173,0.0017117587644080064,4.143486020892136,0.7873106666450268,0.19001166232377206,-4.244529254271239,2021-10-14 14:48:59,2021-10-14 14:48:59.978,0.7940638325571177,0.478303057374269,0.7355268823459588,0.9971686296062224,0.8144005415442119,0.1334040736390616,0.4122078830343786,0.6164937766098072,0.9549707027052042,0.2175589902973798,0.2024135813234877,0.7106873173235931,0.5376774961935707,-0.04266528998840412,0.05043525227251887,0.5614240216501827,0.2324925018504609,-0.5352325332524845,-0.265330904568696,0.2550516510073677,805.4578754578755,791.3553113553114,789.3406593406594,817.5457875457878,1110.476190476191,-0.345642,0.260071,0.9097290000000001,3.648682,-5.293579,1.607513,53.0,47.0,6.0
721.3053613053612,46.918495781230995,,,,,,,32.927363786064646,33.016114415817945,0.06504664778357062,0.04564968673804851,715.3846153846154,45.61846153846145,0.06376774193548376,61.53846153846154,9.696969696969695,58.78787878787879,9.705882352941176,132.8125,,,0.05958419072206555,0.015077196097960866,0.0017402622970864926,3.9519410860567166,0.7798809503539829,0.1973412389940649,-4.194571868838893,2021-10-14 14:49:00,2021-10-14 14:49:00.979,0.6877380204020821,0.7163947401322832,0.9241751290783012,0.8502431255563793,0.7422040621397004,0.3835889291784325,0.6232879283562018,0.5279144376819115,0.9086639239319866,0.2510366175713328,0.3801744454835573,0.5042039091411005,0.4854079083540977,-0.03931157119137682,0.1164332754212604,0.5866133243555717,0.1563574603760031,-0.40161235882076896,-0.3599002978954868,0.2949142268077375,729.3040293040292,804.2490842490844,798.2051282051282,780.0732600732601,817.5457875457878,-0.337891,0.269592,0.913818,4.157104,-5.345917,-0.231781,55.00000000000001,46.0,9.000000000000009
722.1445221445223,48.036852936022214,,,,,,,32.84507953302834,32.939092299585226,0.06651972210959824,0.04548269567356087,715.3846153846154,45.61846153846145,0.06376774193548376,61.53846153846154,9.696969696969695,58.18181818181818,9.705882352941176,132.8125,,,0.059668596383264966,0.0158082291761451,0.001758859429786445,3.774527539954061,0.7725521744464521,0.20467519875503534,-4.147224640602898,2021-10-14 14:49:01,2021-10-14 14:49:01.978,1.1802941025264562,0.793009754361143,1.0780167190920558,1.1462124756977352,0.7571453647855066,0.4748322478345754,0.6862222417969885,0.7721279711061669,0.9246143661919296,0.2899764271833213,0.5465368396204877,0.957049516977425,0.5797778546570591,-0.1264201186010694,0.1930155959778034,0.7785364696236132,0.2222782107328625,-0.2142096745252693,-0.2946205610714324,0.2751973413001472,755.0915750915751,784.5054945054945,790.952380952381,761.1355311355313,697.0695970695973,-0.344177,0.278625,0.90802,4.306641,-4.695435,1.383209,56.00000000000001,44.0,12.000000000000007
