HRV_MeanNN,HRV_SDNN,HRV_SDANN1,HRV_SDNNI1,HRV_SDANN2,HRV_SDNNI2,HRV_SDANN5,HRV_SDNNI5,HRV_RMSSD,HRV_SDSD,HRV_CVNN,HRV_CVSD,HRV_MedianNN,HRV_MadNN,HRV_MCVNN,HRV_IQRNN,HRV_pNN50,HRV_pNN20,HRV_HTI,HRV_TINN,HRV_ULF,HRV_VLF,HRV_LF,HRV_HF,HRV_VHF,HRV_LFHF,HRV_LFn,HRV_HFn,HRV_LnHF,Time,TimeStamp,Delta_TP9,Delta_AF7,Delta_AF8,Delta_TP10,Theta_TP9,Theta_AF7,Theta_AF8,Theta_TP10,Alpha_TP9,Alpha_AF7,Alpha_AF8,Alpha_TP10,Beta_TP9,Beta_AF7,Beta_AF8,Beta_TP10,Gamma_TP9,Gamma_AF7,Gamma_AF8,Gamma_TP10,RAW_TP9,RAW_AF7,RAW_AF8,RAW_TP10,AUX_RIGHT,Accelerometer_X,Accelerometer_Y,Accelerometer_Z,Gyro_X,Gyro_Y,Gyro_Z,Attention,Meditation,A_M
723.2167832167831,46.65513205889632,,,,,,,31.835420692677392,31.93122771313281,0.06451057710715698,0.04401919511750984,715.3846153846154,34.21384615384618,0.04782580645161294,53.846153846153925,9.696969696969695,50.90909090909091,11.785714285714285,164.0625,,,0.0448312729222139,0.008747902937877663,0.0020651346062842365,5.124802280109713,0.8056757743328333,0.15721109426207666,-4.738941271579232,2021-10-14 14:55:25,2021-10-14 14:55:25.510,1.235864681069944,1.0455587697897901,0.9515771548428588,1.0667019665819621,0.3439048536411066,0.895023219358168,0.3782399449641246,0.5808759570912757,0.802371473429053,0.4538784107108794,0.6706298388285721,0.7805417842349548,0.5991984236508247,-0.11367830972124901,-0.09483325251163356,0.7392371980165366,0.1024294290793085,-0.5768831478156423,-0.3674214001832889,0.5015003295110863,760.3296703296703,585.8608058608057,801.025641025641,819.5604395604396,776.8498168498169,-0.083374,0.1073,1.005676,4.015045,-5.069275,1.719666,76.0,76.0,0.0
723.030303030303,46.56242672685489,,,,,,,31.52221244340529,31.613717641939353,0.06439899756857549,0.043597360043268016,715.3846153846154,34.21384615384618,0.04782580645161294,53.846153846153925,9.090909090909092,50.90909090909091,11.785714285714285,164.0625,,,0.044691478061533715,0.008977915431706816,0.002044249557524529,4.977934844841514,0.802163987388364,0.16114393064417515,-4.712987558169232,2021-10-14 14:55:26,2021-10-14 14:55:26.510,1.000330409439557,1.0455587697897901,0.8975923943594504,0.533505898445392,0.4286793081503772,0.895023219358168,0.4729063350170341,0.4577692890047895,0.593204048763874,0.4538784107108794,0.6706298388285721,0.7394944042269269,0.5583887434422963,-0.11367830972124901,0.01519294585727224,0.7655711496058814,0.035694170419919916,-0.5768831478156423,-0.4162772372937101,0.5007075207899303,781.2820512820513,749.047619047619,810.2930402930403,760.7326007326008,640.2564102564102,-0.096069,0.10992400000000001,0.995972,3.551483,-6.572113000000001,-0.9495540000000001,68.0,75.0,-7.0
721.4918414918415,45.44084164339756,,,,,,,31.487855798380775,31.579250268584108,0.06298178167813889,0.04364270527754379,715.3846153846154,34.21384615384618,0.04782580645161294,53.846153846153925,9.090909090909092,50.90909090909091,11.0,156.25,,,0.04482284258936122,0.009217992697017795,0.002011687692723276,4.8625383055317775,0.7996578959714665,0.1644527704926767,-4.686597976936488,2021-10-14 14:55:27,2021-10-14 14:55:27.510,1.075249868110177,1.0455587697897901,0.7388307093960041,0.5389032787178751,0.5846664223460389,0.895023219358168,0.04441009668390285,0.29456195521772804,0.8942897156049864,0.4538784107108794,0.0282982225130399,0.7070684066511154,0.6336866625883556,-0.11367830972124901,-0.036757308348538915,0.709990610033744,0.0757051490180051,-0.5768831478156423,-0.5414718402235622,0.6386225788530857,871.9413919413921,1506.1538461538462,831.6483516483516,815.5311355311355,743.0036630036632,-0.572327,0.031799,0.828247,5.87677,1.315918,1.6523740000000002,60.0,65.0,-5.0
721.1188811188811,45.235186200703495,,,,,,,31.43625042778307,31.53221730535708,0.06272916627909814,0.04359371422782176,715.3846153846154,34.21384615384618,0.04782580645161294,53.846153846153925,9.090909090909092,50.90909090909091,11.0,132.8125,,,0.045169185763296704,0.009364399874340849,0.0019836916362021982,4.823500317095987,0.7992102228216192,0.1656909236615927,-4.670840026896927,2021-10-14 14:55:28,2021-10-14 14:55:28.515,1.355024374704022,1.0455587697897901,1.0150897560350851,0.5665593356092479,0.8181650457399269,0.895023219358168,0.1825929039407546,0.1682376079713753,0.8806807370851497,0.4538784107108794,0.1053161322678685,0.5706574909937485,0.5371356069567418,-0.11367830972124901,0.2825709730123643,0.7831585862395447,0.09979943994943452,-0.5768831478156423,-0.454966392245591,0.7650104453735541,780.4761904761905,857.4358974358977,807.4725274725273,752.2710622710623,790.952380952381,-0.577148,0.055664,0.826843,4.785156,-4.6804809999999994,0.88974,54.0,100.0,-46.0
720.4355885078777,45.47846056163179,,,,,,,31.36372082012885,31.458327730866927,0.06312633813083003,0.043534385752774206,715.3846153846154,34.21384615384618,0.04782580645161294,51.92307692307702,9.036144578313252,50.602409638554214,10.375,132.8125,,,0.04568443379107205,0.009464917401949862,0.001953410297117866,4.826712357961054,0.8000389578174886,0.16575235864178334,-4.660163221041458,2021-10-14 14:55:29,2021-10-14 14:55:29.509,1.383093829044961,1.0455587697897901,0.7015739392269442,1.375808662346701,0.5817944904442226,0.895023219358168,0.1337614886303504,0.644671076973694,1.068323195845502,0.4538784107108794,0.48991988940868103,0.9163168248695998,0.5761935346229701,-0.11367830972124901,0.1024036264372744,0.862309534469722,0.3486626514023343,-0.5768831478156423,-0.2562933127745591,0.9076206473197974,797.8021978021977,844.5421245421246,815.934065934066,774.0293040293042,686.1904761904763,-0.580505,0.06170700000000001,0.8217770000000001,4.478607,-6.003876,0.643005,54.0,56.00000000000001,-2.0000000000000067
720.3263403263402,46.03605603386711,,,,,,,31.36155942293992,31.45254674784028,0.06390999947747393,0.04353798780804228,715.3846153846154,34.21384615384618,0.04782580645161294,53.846153846153925,9.090909090909092,50.90909090909091,10.3125,148.4375,,,0.04646375223102708,0.009510719752405423,0.001913321656811561,4.885408616868941,0.8026519808266643,0.16429577211927962,-4.65533572154471,2021-10-14 14:55:30,2021-10-14 14:55:30.510,0.9117825178332406,1.0455587697897901,1.13099779544284,1.063417853953383,0.4634881719600333,0.895023219358168,0.4897091259721501,0.4183571068218476,1.0304451285387919,0.4538784107108794,0.8026649139348866,0.8239300663350358,0.6407863420566928,-0.11367830972124901,-0.057388707588197065,0.8598246515649715,0.3947161670389805,-0.5768831478156423,-0.2792610419368626,0.7875075104517859,755.0915750915751,821.5750915750915,804.6520146520148,781.6849816849817,686.9963369963369,-0.562012,0.06897,0.8339840000000001,4.26178,-5.099182,1.1514280000000001,55.00000000000001,51.0,4.000000000000006
720.2502316960147,46.23374722246051,,,,,,,32.15972331159851,32.25762223915727,0.06419122853121649,0.0446507642710092,715.3846153846154,34.21384615384618,0.04782580645161294,53.846153846153925,9.63855421686747,51.20481927710844,10.375,148.4375,,,0.047135761517521725,0.009479665844577856,0.001881613953350576,4.972302008354256,0.8057802661050533,0.16205376599233404,-4.658606211798699,2021-10-14 14:55:31,2021-10-14 14:55:31.513,0.5434369687703401,1.687940091909098,1.245378523775573,1.235636664525288,0.4517261609223374,1.4031534509485288,0.4111708390562553,0.7134251195157901,0.7162461432106121,1.2848674881485058,0.6262053936080685,0.8308084604439941,0.5583019830904434,0.6272105108652624,-0.00612871135943882,0.7208571696847181,0.28153336784890903,-0.0996846493132552,-0.4194211455747012,0.5656599407276199,794.1758241758242,817.948717948718,802.2344322344322,803.4432234432236,795.3846153846154,-0.562012,0.073059,0.830627,3.9328,-5.2412410000000005,1.40564,55.00000000000001,49.0,6.000000000000008
720.6060606060606,47.25078471995643,,,,,,,32.88350447417524,32.98015958816664,0.06557089553231966,0.045633122272825184,715.3846153846154,34.21384615384618,0.04782580645161294,53.846153846153925,10.303030303030305,52.12121212121213,10.3125,148.4375,,,0.0479617935861057,0.009368166457493223,0.0018451791435275184,5.119656424095985,0.8105058009992784,0.15831253776807794,-4.670437884111319,2021-10-14 14:55:32,2021-10-14 14:55:32.510,0.5990830414680783,1.6161132716764741,1.2635573540551532,1.235232263163372,0.2691593816621576,1.1265609438588522,0.5199711432226716,0.8445719594982041,0.2636534894887367,0.4297752715971917,0.2785180239448338,0.8013754842221167,0.5210572157015511,0.2474950537649073,-0.04927373345887141,0.6496939952650714,0.050480378877324934,-0.266254644483701,-0.4328225645509193,0.4597714191599055,767.1794871794873,799.4139194139194,810.2930402930403,769.5970695970697,792.1611721611722,-0.603455,0.075012,0.803711,3.8206480000000003,-4.687958,1.4953610000000002,56.99999999999999,43.0,13.999999999999993
720.5128205128204,47.18465316905676,,,,,,,33.60523157149609,33.70605607565359,0.0654875969250254,0.046640712857236574,715.3846153846154,34.21384615384618,0.04782580645161294,53.846153846153925,10.909090909090908,52.12121212121213,10.3125,148.4375,,,0.048584910198033,0.009239644757116191,0.0018208761644399934,5.258309326298922,0.8145621430855312,0.15490951416866594,-4.684251840267165,2021-10-14 14:55:33,2021-10-14 14:55:33.510,1.301209504741194,1.6161132716764741,1.173186654158477,1.264738303640103,0.6847859468173287,1.1265609438588522,0.305560163873612,0.9618904503947242,0.7022127585615737,0.4297752715971917,0.3253212724371976,0.8584441667609762,0.6005730965329709,0.2474950537649073,0.0793555144996616,0.5982834037656455,0.2011933247805545,-0.266254644483701,-0.3970008446908972,0.5817274342202362,843.7362637362637,786.9230769230769,772.0146520146519,799.4139194139194,700.6959706959708,-0.554504,0.052673000000000005,0.848389,3.753357,-7.551575,0.635529,46.0,33.0,13.0
719.9258572752548,46.54898676299772,,,,,,,33.583426157286226,33.680173339707224,0.06465802872975611,0.04664845111188446,715.3846153846154,34.21384615384618,0.04782580645161294,46.15384615384619,10.843373493975903,52.40963855421686,10.375,148.4375,,,0.04917591629997844,0.009097775747954655,0.0018048795012968754,5.405268019607329,0.818526723120945,0.15143129261153784,-4.699725318637262,2021-10-14 14:55:34,2021-10-14 14:55:34.510,1.3446866815612977,1.6161132716764741,0.7521623434070995,1.264738303640103,0.7217891916889786,1.1265609438588522,0.22068896667315,0.9618904503947242,0.6504923348451179,0.4297752715971917,0.1663405683824628,0.8584441667609762,0.619980010223772,0.2474950537649073,0.0699524315973367,0.5982834037656455,0.2217947984246074,-0.266254644483701,-0.4520607597050181,0.5817274342202362,742.1978021978023,766.7765567765567,799.8168498168499,795.3846153846154,722.0512820512822,-0.529175,0.06164600000000001,0.856201,6.071167,-5.891724,4.553375,36.0,27.0,9.0
719.1142191142192,46.12730678967064,,,,,,,33.07495958219501,33.17572761786385,0.0641446178695906,0.04599402807378171,715.3846153846154,34.21384615384618,0.04782580645161294,46.15384615384619,10.303030303030305,52.72727272727272,10.3125,148.4375,,,0.04982676193652051,0.008917664323179267,0.0017986642039371317,5.587422909271001,0.8229966715433401,0.14729450140202788,-4.719721213855388,2021-10-14 14:55:35,2021-10-14 14:55:35.510,0.7689293685443543,1.6161132716764741,-0.008602071881117408,0.8484649049009919,0.0661510665462125,1.1265609438588522,0.02246706677440743,0.2723012150674779,0.4139312127709849,0.4297752715971917,-0.1116750501651453,0.8467533350815949,0.4414646967951697,0.2474950537649073,-0.01244848317543837,0.806221727045915,0.09323952325487683,-0.266254644483701,-0.4444011687230812,0.5980861541293929,738.974358974359,121.2820512820513,834.4688644688645,761.9413919413921,804.2490842490844,-0.36181599999999997,0.056763,0.9425049999999999,0.822449,-13.929291000000001,-2.7963259999999996,28.000000000000004,22.0,6.000000000000004
718.7412587412587,46.343348525802504,,,,,,,33.140346716033925,33.24065017377583,0.06447848646808484,0.046108869239082036,715.3846153846154,34.21384615384618,0.04782580645161294,46.15384615384619,10.303030303030305,53.33333333333334,10.3125,148.4375,,,0.050309865368024564,0.008797679152173972,0.001807994002988855,5.7185383210517085,0.8258954379739122,0.1444242202475999,-4.7332673249890655,2021-10-14 14:55:36,2021-10-14 14:55:36.514,1.360686300563294,1.6161132716764741,-0.008602071881117408,1.474160358212147,1.0965561472817942,1.1265609438588522,0.02246706677440743,1.1771741769632351,0.5490153263028746,0.4297752715971917,-0.1116750501651453,0.6367881980991866,0.3497049308860381,0.2474950537649073,-0.01244848317543837,0.7224460938287859,0.2444082437717595,-0.266254644483701,-0.4444011687230812,0.4744609852246221,782.4908424908424,827.2161172161173,795.7875457875458,817.1428571428571,761.5384615384613,-0.288696,0.083923,0.962341,5.7571410000000025,-20.344391,1.368256,32.0,27.0,5.0
718.5820203892492,46.43395682152318,,,,,,,33.3852921203686,33.483656722298576,0.06461886813751662,0.0464599602732672,715.3846153846154,34.21384615384618,0.04782580645161294,46.15384615384619,10.843373493975903,53.01204819277109,10.375,148.4375,,,0.05077166639468088,0.00871684692172458,0.0018310909165297328,5.824544912925462,0.8279842479382973,0.14215432455519178,-4.742497697996582,2021-10-14 14:55:37,2021-10-14 14:55:37.520,0.9985968731573392,1.6161132716764741,1.070002757231825,1.387856053882641,0.7331540549591457,1.1265609438588522,0.2395963186804759,0.980985516019782,0.6988959359244785,0.4297752715971917,0.1513575076648886,0.8453244241957782,0.4228599250183137,0.2474950537649073,0.04269802623383481,0.8406058813567856,0.3311517021553027,-0.266254644483701,-0.3119513015692534,0.6017374564492339,805.8608058608058,439.5970695970696,774.4322344322345,820.7692307692308,753.0769230769231,-0.16284200000000001,0.145325,0.985535,17.682648,13.376007000000001,-16.830292,39.0,37.0,2.0
719.138090824838,46.2992112656453,,,,,,,33.3852921203686,33.480521890885434,0.06438153096930377,0.046424035308818494,715.3846153846154,34.21384615384618,0.04782580645161294,46.15384615384619,10.843373493975903,53.01204819277109,10.375,148.4375,,,0.05121530415931783,0.008685477919699987,0.0018710420622925718,5.896659301056276,0.8291046099295487,0.14060581892208532,-4.7461028526280495,2021-10-14 14:55:38,2021-10-14 14:55:38.514,0.9669714342250612,1.6161132716764741,1.2712556325053,1.452610156762262,0.3312104612141051,1.1265609438588522,0.7209317496916646,0.9687091233618556,0.6240734417114822,0.4297752715971917,0.6902230537704742,0.7938291558557798,0.5375096060156289,0.2474950537649073,0.1208069140637238,1.012997698807361,0.3260744032632691,-0.266254644483701,-0.2403421166859279,0.7350911279137717,757.5091575091576,730.1098901098901,817.1428571428571,796.5934065934067,728.4981684981685,-0.293396,0.130798,0.96698,4.807587,-6.5347290000000005,-0.7102970000000001,46.0,43.0,3.0
719.3697868396664,46.29909461470973,,,,,,,33.9286978201628,34.02735518410524,0.06436063268393688,0.04716447429522761,715.3846153846154,34.21384615384618,0.04782580645161294,46.15384615384619,10.843373493975903,53.01204819277109,10.375,148.4375,,,0.051610924577227636,0.008708543872318942,0.0019274460207253199,5.926470065940483,0.8291322552522048,0.13990322165250454,-4.743450680931903,2021-10-14 14:55:39,2021-10-14 14:55:39.512,0.1303668795755095,1.6161132716764741,0.5584022228766112,0.7702851819584771,0.5232875077267918,1.1265609438588522,0.4595006468762595,0.2877007472119433,0.4578668406544156,0.4297752715971917,0.2208927466803437,0.6837264376678011,1.024279666701653,0.2474950537649073,0.1075044135743962,0.6316083832249949,0.719832812574465,-0.266254644483701,-0.3836480217646299,0.6347173424727396,798.6080586080586,625.3479853479854,805.054945054945,764.7619047619047,687.8021978021977,-0.24706999999999998,0.135864,0.966675,4.358978,-7.177734,0.336456,49.0,49.0,0.0
720.1864801864803,46.01567431371046,,,,,,,33.02037139582034,33.1203030386884,0.06389411017795762,0.045849751841037435,715.3846153846154,34.21384615384618,0.04782580645161294,53.846153846153925,9.696969696969695,52.72727272727272,10.3125,148.4375,,,0.052024713801981766,0.008822495633321013,0.0020228499553489,5.896825112102476,0.8274958590180284,0.1403290488164045,-4.730450497363001,2021-10-14 14:55:40,2021-10-14 14:55:40.516,0.9045905825397902,1.6161132716764741,1.106821294642463,0.5800515922076693,0.7763404545608074,1.1265609438588522,0.8308151396775364,0.03112481355284182,0.5033736396380611,0.4297752715971917,0.6776758680710477,0.7521481968968907,0.7859965456547049,0.2474950537649073,0.1914209471076904,0.8029159910943567,0.5417950177774894,-0.266254644483701,0.09922717159883462,0.6614777035517969,804.2490842490844,601.978021978022,802.2344322344322,754.2857142857142,733.3333333333335,-0.127686,0.11944600000000001,0.9912110000000001,3.117828,-2.033691,4.897308,50.0,49.0,1.0
719.6270396270396,45.78815460557042,,,,,,,32.86704214299373,32.95427603297485,0.06362761831364898,0.04567232793257421,715.3846153846154,34.21384615384618,0.04782580645161294,46.15384615384619,9.090909090909092,52.72727272727272,10.3125,148.4375,,,0.052368151242883326,0.009003542591118878,0.0021233434590625373,5.816394015233453,0.8247597525012124,0.14179915431126602,-4.710137157859003,2021-10-14 14:55:41,2021-10-14 14:55:41.513,1.216966501080456,1.6161132716764741,1.4880923701747233,1.165532790733155,0.9289645607772204,1.1265609438588522,1.130674656163269,0.948004829396324,0.7620655850193265,0.4297752715971917,1.014945346790561,1.0639691953084642,0.5914426897869635,0.2474950537649073,0.325466827397378,0.9087539606167196,0.3377035685302065,-0.266254644483701,0.1298240264455486,0.7535268318162628,747.0329670329671,770.8058608058608,817.5457875457878,815.934065934066,745.4212454212454,-0.140747,0.11065699999999999,1.002014,4.740295,-4.7253419999999995,2.422485,47.0,43.0,4.0
718.628359592215,44.622947384540055,,,,,,,32.65217610858644,32.745931948302385,0.062094609527880734,0.04543680425737009,715.3846153846154,34.21384615384618,0.04782580645161294,46.15384615384619,9.036144578313252,51.80722891566265,10.375,171.875,,,0.052758128256568816,0.00934260632192832,0.0022799537646517733,5.6470460638739075,0.8194713292807327,0.1451150424508084,-4.673170016211452,2021-10-14 14:55:42,2021-10-14 14:55:42.514,1.419990444578385,1.6161132716764741,1.08677962252096,1.347431094763934,1.278811555699948,1.1265609438588522,0.6987487290526718,1.171072525044623,1.1884713097571107,0.4297752715971917,0.7246690264227444,1.103873345040074,0.4761832170446513,0.2474950537649073,0.2412255878569794,0.7536313294764199,0.2691690844570624,-0.266254644483701,-0.08638318344360525,0.8034283043490139,825.6043956043958,765.5677655677656,819.96336996337,765.5677655677656,586.6666666666666,-0.127563,0.117432,0.996094,3.289795,-6.116028,0.755157,44.0,40.0,4.0
717.840593141798,44.193318748450615,,,,,,,32.73444425638856,32.82330208740057,0.06156425140995185,0.045601272161439874,715.3846153846154,34.21384615384618,0.04782580645161294,46.15384615384619,9.036144578313252,52.40963855421686,10.375,171.875,,,0.05302457365851635,0.009710108332043792,0.0024295430658736288,5.460760255736065,0.8137068094126155,0.1490098029038879,-4.634587839991005,2021-10-14 14:55:43,2021-10-14 14:55:43.516,1.570895417326664,1.6161132716764741,0.5739552308168283,1.540533860919311,1.3750370564694971,1.1265609438588522,0.07409014393176723,1.353285536805966,1.180356101696832,0.4297752715971917,-0.001821597959082759,1.0200311529467572,0.4788115906888493,0.2474950537649073,0.1993693483076367,0.7641348746548029,0.3120163769280395,-0.266254644483701,-0.1577848690278508,0.8602826741510304,799.4139194139194,1625.4212454212452,832.0512820512822,800.6227106227108,627.7655677655678,-0.49420200000000003,0.048645,0.871948,-2.459869,11.132964999999999,-1.1514280000000001,37.0,36.0,1.0
716.2187210379982,43.59679715083896,,,,,,,32.07598115927408,32.1733193193217,0.06087078691220915,0.044785175557526834,711.5384615384614,39.91615384615382,0.05609837837837834,46.15384615384619,8.433734939759036,52.40963855421686,10.375,171.875,,,0.05308431777292578,0.010249673624943972,0.002638032419511748,5.179122742380586,0.8046489208800015,0.15536394113535615,-4.580509415373551,2021-10-14 14:55:44,2021-10-14 14:55:44.510,1.232248943871186,1.6161132716764741,0.5739552308168283,1.3938089166038048,0.7076185654301712,1.1265609438588522,0.07409014393176723,1.163433885085547,0.6557300678983656,0.4297752715971917,-0.001821597959082759,0.9740954159040794,0.5202430681230054,0.2474950537649073,0.1993693483076367,0.7682975304328435,0.2931071304190421,-0.266254644483701,-0.1577848690278508,0.8060273706610976,746.2271062271063,888.0586080586081,815.934065934066,850.5860805860806,718.4249084249085,-0.593201,0.037781,0.8222659999999999,5.099182,-5.600128,1.8766779999999998,48.0,57.99999999999999,-9.999999999999991
716.2650602409639,43.58353980755818,,,,,,,32.15972331159851,32.257486662769146,0.06084833984907199,0.044899193185242665,711.5384615384614,39.91615384615382,0.05609837837837834,46.15384615384619,8.433734939759036,53.01204819277109,10.375,171.875,,,0.0525358400141401,0.010663909405279642,0.0028011823805075852,4.926508470536134,0.7959863380928501,0.1615721038243188,-4.540890191520694,2021-10-14 14:55:45,2021-10-14 14:55:45.514,0.5394910715304335,1.6161132716764741,0.7520162298343313,1.875170311922275,0.2996352627883018,1.1265609438588522,0.1870496774917928,0.8623136950431419,0.6815154626249721,0.4297752715971917,0.3921163222705963,0.7014833259409291,0.4902369259522065,0.2474950537649073,0.09997205995505452,0.4311888264850995,0.1751422120599731,-0.266254644483701,-0.3748561895032107,0.1407073650680027,799.4139194139194,894.1025641025641,813.5164835164835,792.1611721611722,579.0109890109892,-0.591492,0.042419,0.8158569999999999,4.015045,-5.5328370000000024,0.9420780000000001,52.0,59.0,-7.0
716.7747914735866,43.795940303150495,,,,,,,32.558687580908625,32.65565830737001,0.06110139589746494,0.04542387367442515,715.3846153846154,34.21384615384618,0.04782580645161294,46.15384615384619,9.036144578313252,53.01204819277109,10.375,140.625,,,0.052212312120156125,0.011212557082677769,0.002997605915173028,4.656592758918365,0.7860639343444391,0.1688066736862397,-4.490720960624428,2021-10-14 14:55:46,2021-10-14 14:55:46.513,0.6225694822777192,1.6161132716764741,0.5360774190571899,0.525457431592616,0.4417773491603867,1.1265609438588522,0.2504550428394779,0.2703476204709851,0.6942737138455123,0.4297752715971917,0.3398046547833236,0.605637524284688,0.4128188004654336,0.2474950537649073,0.1011297915027347,0.4755672924735514,0.18425703777069896,-0.266254644483701,-0.3266931571360115,0.1032471876113755,790.5494505494507,846.959706959707,799.4139194139194,781.6849816849817,603.1868131868133,-0.588989,0.05011,0.8179930000000001,4.456176999999999,-5.428162,1.517792,56.00000000000001,60.0,-3.9999999999999933
718.1649675625579,45.655087746285744,,,,,,,33.976228122924425,34.07577462535358,0.06357186692249621,0.04730978209399336,715.3846153846154,34.21384615384618,0.04782580645161294,46.15384615384619,10.240963855421684,54.216867469879524,11.066666666666665,179.6875,,,0.052112506473212986,0.012093258127146858,0.003289050565401089,4.309219726008429,0.7720964394854563,0.1791731423731875,-4.415107161236302,2021-10-14 14:55:47,2021-10-14 14:55:47.510,1.1225038165249699,1.6161132716764741,1.029573896093131,0.980958101998292,0.7117480569574427,1.1265609438588522,0.6961893329059806,0.7827978333109433,0.5005729042532071,0.4297752715971917,0.4621893189927608,0.6524039708932655,0.2668531221686925,0.2474950537649073,0.02772709551196724,0.5234289655016118,-0.04441674531572968,-0.266254644483701,-0.382057657333861,0.1071695829047666,784.1025641025641,888.0586080586081,786.5201465201468,828.021978021978,723.2600732600732,-0.5821529999999999,0.057067999999999994,0.823364,3.74588,-5.166473000000001,2.564545,59.0,60.0,-1.0
719.020979020979,47.81684729203659,,,,,,,33.22189965712113,33.311659695727556,0.06650271506284024,0.046204353734373885,715.3846153846154,34.21384615384618,0.04782580645161294,46.15384615384619,9.090909090909092,53.93939393939394,11.0,179.6875,,,0.05224398513265882,0.012733632898794865,0.0034905056635779947,4.102834245960027,0.7630409935777144,0.18597899594141887,-4.363508526231085,2021-10-14 14:55:48,2021-10-14 14:55:48.522,1.1225038165249699,1.6161132716764741,1.029573896093131,0.980958101998292,0.7117480569574427,1.1265609438588522,0.6961893329059806,0.7827978333109433,0.5005729042532071,0.4297752715971917,0.4621893189927608,0.6524039708932655,0.2668531221686925,0.2474950537649073,0.02772709551196724,0.5234289655016118,-0.04441674531572968,-0.266254644483701,-0.382057657333861,0.1071695829047666,805.8608058608058,896.9230769230769,805.8608058608058,793.7728937728937,670.4761904761905,-0.590271,0.06427000000000001,0.817871,4.463654,-5.226287999999999,0.844879,55.00000000000001,49.0,6.000000000000008
719.9721964782203,49.119767895506286,,,,,,,34.07108980997175,34.17451928371492,0.06822453441365939,0.04732278548620651,715.3846153846154,34.21384615384618,0.04782580645161294,46.15384615384619,9.63855421686747,54.216867469879524,11.066666666666665,179.6875,,,0.05278840090497075,0.013981678994486772,0.003869971640383145,3.775540900759213,0.7472871232999927,0.1979284936761572,-4.2700074496391744,2021-10-14 14:55:49,2021-10-14 14:55:49.510,1.128552778472994,1.6161132716764741,1.2439776129724178,1.268091544730132,0.6542357295212444,1.1265609438588522,0.6050930711253102,0.6947866973877092,0.6665122400718255,0.4297752715971917,-0.04228604378015726,0.7355187995609281,0.5395026305037925,0.2474950537649073,-0.0056070517969599365,0.4775361495373429,0.1867807498672306,-0.266254644483701,-0.4010863129788467,0.4316863857549766,746.6300366300368,539.1208791208792,919.4871794871796,702.3076923076924,570.5494505494505,-0.596191,0.063843,0.81842,3.4916690000000004,-5.345917,0.4187010000000001,42.0,39.0,3.0
719.4405594405594,48.935586359291094,,,,,,,34.074362830990694,34.17872559552124,0.06801894293719504,0.047362304479312486,715.3846153846154,34.21384615384618,0.04782580645161294,46.15384615384619,9.696969696969695,54.54545454545454,10.3125,140.625,,,0.05384534509507117,0.01548204536541591,0.004309267735305637,3.4779219298344093,0.7312301564786065,0.2102491577530672,-4.168074290000065,2021-10-14 14:55:50,2021-10-14 14:55:50.510,0.9713042681266508,1.6161132716764741,1.274186282944004,1.123902856085267,0.3134043771503489,1.1265609438588522,0.6604162428323251,0.4605864398830338,0.463009080813699,0.4297752715971917,-0.050845499244579866,0.4737120719766756,0.5306401543796003,0.2474950537649073,-0.002412289510480228,0.5239475338820679,0.2010863916577208,-0.266254644483701,-0.4436543155631273,0.494294102682909,797.3992673992674,906.1904761904764,811.5018315018315,804.2490842490844,581.4285714285714,-0.593201,0.065857,0.815308,4.493561,-4.717865,1.106567,37.0,24.0,13.0
719.7868396663578,48.902726009134035,,,,,,,34.055297878736404,34.15845509137815,0.06794056700425627,0.0473130321395179,715.3846153846154,34.21384615384618,0.04782580645161294,46.15384615384619,9.63855421686747,54.819277108433745,11.066666666666665,179.6875,,,0.055025159303052566,0.01683018645349801,0.0046980917962856465,3.2694325434294913,0.7187810379524092,0.21984886624956607,-4.084581192201574,2021-10-14 14:55:51,2021-10-14 14:55:51.510,1.3133174140335822,1.6161132716764741,1.176871636078728,1.304644182493065,0.6778908541497728,1.1265609438588522,0.6883193244267336,0.7674133443454351,0.7296990050435005,0.4297752715971917,0.2438776024536124,0.3150526722006791,0.4853747529423825,0.2474950537649073,-0.02618823981410705,0.5398660641469444,0.2506292396634329,-0.266254644483701,-0.45420035098809297,0.4585097255004311,758.7179487179487,920.2930402930403,795.7875457875458,819.5604395604396,727.6923076923077,-0.594604,0.080261,0.80957,4.830017,-5.360869999999999,1.136475,35.0,24.0,11.0
719.8135198135199,49.05038125488394,,,,,,,34.174807218260256,34.278670457448435,0.06814317862158423,0.04747730666008306,715.3846153846154,34.21384615384618,0.04782580645161294,46.15384615384619,9.696969696969695,55.15151515151515,11.0,179.6875,,,0.055850737753831335,0.018074185897088108,0.005056478078014168,3.09008317563168,0.7071378391777933,0.2288410372750692,-4.0132705522234025,2021-10-14 14:55:52,2021-10-14 14:55:52.517,1.3133174140335822,1.6161132716764741,1.176871636078728,1.304644182493065,0.6778908541497728,1.1265609438588522,0.6883193244267336,0.7674133443454351,0.7296990050435005,0.4297752715971917,0.2438776024536124,0.3150526722006791,0.4853747529423825,0.2474950537649073,-0.02618823981410705,0.5398660641469444,0.2506292396634329,-0.266254644483701,-0.45420035098809297,0.4585097255004311,808.2783882783882,842.9304029304027,800.2197802197803,774.0293040293042,687.8021978021977,-0.594971,0.099365,0.8024899999999999,4.373932,-6.2431339999999995,0.9420780000000001,35.0,29.0,6.000000000000004
719.9067599067599,49.0123841106515,,,,,,,34.217011380335244,34.321778801584856,0.06808157228166524,0.04752978203006029,715.3846153846154,34.21384615384618,0.04782580645161294,46.15384615384619,9.696969696969695,55.75757575757577,11.785714285714285,179.6875,,,0.055989342451078464,0.019247417858153777,0.005396888921791691,2.9089274656839086,0.6943669669552358,0.2387020560486837,-3.9503783644843127,2021-10-14 14:55:53,2021-10-14 14:55:53.510,1.3133174140335822,1.6161132716764741,1.176871636078728,1.304644182493065,0.6778908541497728,1.1265609438588522,0.6883193244267336,0.7674133443454351,0.7296990050435005,0.4297752715971917,0.2438776024536124,0.3150526722006791,0.4853747529423825,0.2474950537649073,-0.02618823981410705,0.5398660641469444,0.2506292396634329,-0.266254644483701,-0.45420035098809297,0.4585097255004311,861.4652014652015,948.901098901099,781.6849816849817,834.8717948717949,593.919413919414,-0.599548,0.104004,0.814331,2.198181,-2.115936,-0.007476999999999998,39.0,34.0,5.0
719.4161260426323,49.16153207675027,,,,,,,34.197162728459034,34.299702027988104,0.06833532123776301,0.047534606871506985,715.3846153846154,34.21384615384618,0.04782580645161294,46.15384615384619,9.63855421686747,56.02409638554217,11.857142857142858,179.6875,,,0.05481434543439745,0.019605862560139617,0.005502884747333178,2.7958140207429416,0.6858386425489414,0.24530910763752845,-3.9319266472590018,2021-10-14 14:55:54,2021-10-14 14:55:54.510,1.3133174140335822,1.6161132716764741,1.176871636078728,1.304644182493065,0.6778908541497728,1.1265609438588522,0.6883193244267336,0.7674133443454351,0.7296990050435005,0.4297752715971917,0.2438776024536124,0.3150526722006791,0.4853747529423825,0.2474950537649073,-0.02618823981410705,0.5398660641469444,0.2506292396634329,-0.266254644483701,-0.45420035098809297,0.4585097255004311,826.8131868131868,894.1025641025641,740.1831501831501,844.5421245421246,957.7655677655678,-0.575317,0.134949,0.825684,5.562744,-9.293671,3.18512,41.0,33.0,8.0
719.2540792540793,49.471330080616724,,,,,,,34.12197860850584,34.2264548741135,0.06878143830886888,0.047440785659349914,715.3846153846154,34.21384615384618,0.04782580645161294,46.15384615384619,9.696969696969695,55.15151515151515,11.785714285714285,171.875,,,0.053908101718307434,0.019907220373082603,0.0055885776749957814,2.7079672956852816,0.6789100016108836,0.2507083459584684,-3.9166727802413774,2021-10-14 14:55:55,2021-10-14 14:55:55.515,1.3133174140335822,1.6161132716764741,1.176871636078728,1.304644182493065,0.6778908541497728,1.1265609438588522,0.6883193244267336,0.7674133443454351,0.7296990050435005,0.4297752715971917,0.2438776024536124,0.3150526722006791,0.4853747529423825,0.2474950537649073,-0.02618823981410705,0.5398660641469444,0.2506292396634329,-0.266254644483701,-0.45420035098809297,0.4585097255004311,804.6520146520148,531.8681318681319,796.1904761904763,779.6703296703297,782.8937728937732,-0.515991,0.176514,0.866821,5.450591999999999,-14.400329999999999,8.202057,38.0,31.0,7.0
719.8795180722891,49.16487167862172,,,,,,,34.463536405620005,34.562248779598924,0.06829597237365026,0.047874033835421936,715.3846153846154,34.21384615384618,0.04782580645161294,51.92307692307702,10.240963855421684,56.02409638554217,11.857142857142858,171.875,,,0.053057267851698016,0.02019112561225014,0.005655721622664999,2.6277518584455577,0.6724271325197294,0.2558944560760401,-3.902512097233205,2021-10-14 14:55:56,2021-10-14 14:55:56.510,1.3133174140335822,1.6161132716764741,1.176871636078728,1.525965837115626,0.6778908541497728,1.1265609438588522,0.6883193244267336,1.199909044366039,0.7296990050435005,0.4297752715971917,0.2438776024536124,0.9075172244552192,0.4853747529423825,0.2474950537649073,-0.02618823981410705,0.5811016167916991,0.2506292396634329,-0.266254644483701,-0.45420035098809297,0.2944119638924415,828.021978021978,546.7765567765567,838.4981684981685,797.8021978021977,687.8021978021977,-0.388489,0.16687000000000002,0.9227290000000001,4.201965,-15.133057,4.590758999999999,33.0,28.000000000000004,4.9999999999999964
720.839160839161,49.510653326008615,,,,,,,33.22189965712113,33.32335259004014,0.06868474413677951,0.046087811903068696,715.3846153846154,34.21384615384618,0.04782580645161294,53.846153846153925,9.090909090909092,55.75757575757577,11.785714285714285,171.875,,,0.052428897662679934,0.020316026075405117,0.005661458087989707,2.58066698024921,0.6686815083366623,0.2591118937291509,-3.8963452425528664,2021-10-14 14:55:57,2021-10-14 14:55:57.510,1.143973772527303,1.6161132716764741,1.6837439577816615,1.525965837115626,0.4726992330367935,1.1265609438588522,0.5339109299805033,1.199909044366039,0.4571176166668696,0.4297752715971917,0.1387048167565957,0.9075172244552192,0.6438205941509545,0.2474950537649073,0.023468168329939518,0.5811016167916991,0.4059531983821801,-0.266254644483701,-0.3432538780205083,0.2944119638924415,736.1538461538463,0.0,763.5531135531136,803.4432234432236,743.809523809524,0.026123,0.197266,0.98877,1.9215389999999999,-15.536804,6.355286,32.0,29.0,3.000000000000004
720.839160839161,49.510653326008615,,,,,,,33.26531280815744,33.36716444988681,0.06868474413677951,0.046148037752876535,715.3846153846154,34.21384615384618,0.04782580645161294,53.846153846153925,9.090909090909092,56.36363636363636,11.785714285714285,171.875,,,0.051078416921886485,0.020109992245657862,0.005541326490207606,2.5399520943582314,0.6656925960193383,0.2620886423401377,-3.906538460793978,2021-10-14 14:55:58,2021-10-14 14:55:58.512,1.2153659004765878,1.6161132716764741,1.3587383361166492,1.5869694298468908,1.149972037549829,1.1265609438588522,0.7255093914409607,0.8311517474329886,0.9644474643801498,0.4297752715971917,0.7148389078297308,0.8685623111391637,0.7998132424463655,0.2474950537649073,0.2395051844126303,0.6029573397965079,0.2926459113807091,-0.266254644483701,-0.3712581769184812,0.2931993516489121,748.2417582417582,1295.018315018315,807.0695970695973,804.2490842490844,747.4358974358977,0.023926,0.19049100000000002,0.997192,4.7702029999999995,-1.77948,2.175751,27.0,60.0,-33.0
720.979020979021,49.83276721001456,,,,,,,33.15123203303499,33.25263430505885,0.06911819312349254,0.045980855293152316,715.3846153846154,34.21384615384618,0.04782580645161294,53.846153846153925,9.090909090909092,55.75757575757577,11.785714285714285,171.875,,,0.04735160358383572,0.01905100205585064,0.0051191570713518715,2.485517740485144,0.6620586768134528,0.2663665062733476,-3.9606355774358417,2021-10-14 14:55:59,2021-10-14 14:55:59.509,1.037223986622304,1.6161132716764741,1.577490765474753,0.8647633340679305,1.12399126919369,1.1265609438588522,0.8752171646040522,0.5071297980979484,1.021229715228688,0.4297752715971917,1.070394819440818,0.7747401381652127,0.6938273945169949,0.2474950537649073,0.2662589098778942,0.5278961197761675,0.1969088005940573,-0.266254644483701,-0.4061641292040444,0.1581585123874754,794.1758241758242,1625.0183150183152,787.7289377289377,755.8974358974359,730.9157509157509,-0.034302,0.17791700000000002,0.99469,4.830017,-3.6262510000000003,2.041168,36.0,94.0,-58.0
719.3473193473192,46.918355963153935,,,,,,,34.06906808108211,34.1694956425882,0.06522350845169488,0.0473610829772658,715.3846153846154,34.21384615384618,0.04782580645161294,53.846153846153925,9.090909090909092,55.15151515151515,11.785714285714285,171.875,,,0.04974285026908947,0.020453462808250014,0.005328087903560863,2.4320014041351192,0.6586328341971112,0.27081926559632785,-3.8896030803513395,2021-10-14 14:56:00,2021-10-14 14:56:00.521,1.081207734887969,1.6161132716764741,1.6255066622555148,1.1734337942734958,0.6469601588699584,1.1265609438588522,0.949128613384114,0.5057702822721872,0.8664417327020256,0.4297752715971917,1.077972584987922,0.8031219088346134,0.6134023453929108,0.2474950537649073,0.104805025439527,0.4579878677990252,0.2658745439549386,-0.266254644483701,-0.4136898704343053,0.2504019817677726,788.5347985347986,813.5164835164835,810.6959706959708,803.040293040293,660.8058608058608,-0.07775900000000001,0.180054,0.9951780000000001,3.7159730000000004,-4.28421,-1.9215389999999999,48.0,100.0,-52.0
718.8344988344987,46.149202866854715,,,,,,,33.80860957076445,33.911636208314114,0.064200039009925,0.04703253617568568,715.3846153846154,34.21384615384618,0.04782580645161294,53.846153846153925,8.484848484848486,54.54545454545454,11.785714285714285,171.875,,,0.04858611745756547,0.02053898740898476,0.005125147174727951,2.365555637680148,0.6543562630676976,0.2766184200636309,-3.8854303741884273,2021-10-14 14:56:01,2021-10-14 14:56:01.509,1.9027957321597608,1.6161132716764741,1.1735922093586348,1.530559523287907,0.9797987036335816,1.1265609438588522,0.7035257787946507,0.7860590101350958,0.9082505936234342,0.4297752715971917,0.7098520234538988,0.6897988034065441,0.564744855417883,0.2474950537649073,-0.0722926365366497,0.4872466345917667,0.3720838484776064,-0.266254644483701,-0.5283900289179586,0.3895334827372117,765.5677655677656,732.1245421245421,793.7728937728937,892.4908424908424,782.4908424908424,-0.11633299999999999,0.14941400000000002,0.9884639999999999,4.344025,-2.586975,5.420685,60.0,94.0,-34.0
718.8344988344987,46.149202866854715,,,,,,,33.70172150820399,33.80376430755757,0.06420003900992502,0.046883839830791585,715.3846153846154,34.21384615384618,0.04782580645161294,53.846153846153925,8.484848484848486,54.54545454545454,11.785714285714285,171.875,,,0.046959985827555964,0.020791931610328617,0.0048347764111838975,2.258567732313436,0.6469503339716939,0.2864427418827183,-3.873190270878416,2021-10-14 14:56:02,2021-10-14 14:56:02.510,1.7888638756694608,1.6161132716764741,0.7214042752953111,1.530559523287907,0.9681151840581118,1.1265609438588522,0.2236566382697422,0.7860590101350958,0.7179812228524641,0.4297752715971917,0.030494331125887817,0.6897988034065441,0.4082817446405315,0.2474950537649073,-0.2394124487130633,0.4872466345917667,0.3355214081180302,-0.266254644483701,-0.4329390726912721,0.3895334827372117,748.2417582417582,805.054945054945,805.4578754578755,811.5018315018315,794.981684981685,-0.160278,0.155029,0.986877,4.194489,-6.003876,1.831818,75.0,99.0,-24.0
719.0917516218723,46.10504717468889,,,,,,,33.74853479044775,33.850753516034835,0.06411566684042957,0.04693216785525599,715.3846153846154,34.21384615384618,0.04782580645161294,53.846153846153925,8.433734939759036,54.819277108433745,11.857142857142858,171.875,,,0.04557892040174835,0.021158837310886053,0.004591531990492443,2.1541316156487653,0.6389930502805822,0.2966360298686462,-3.855697621002367,2021-10-14 14:56:03,2021-10-14 14:56:03.510,1.233999242072775,1.6161132716764741,1.003151149424088,0.3856660523941534,0.9868825758597988,1.1265609438588522,0.6966771953292581,0.1327308245612231,1.010881867562152,0.4297752715971917,0.8000248251786776,0.2125709877118468,0.3077877164583611,0.2474950537649073,0.07790723833876445,0.5183393501026113,-0.08510358190505662,-0.266254644483701,-0.4628293246409697,0.152706673743337,778.4615384615387,1010.952380952381,830.4395604395604,782.4908424908424,834.0659340659341,-0.145447,0.151489,0.9820559999999999,4.052429,-5.345917,0.53833,73.0,71.0,2.0
719.4405594405596,46.33768605635507,,,,,,,33.72312622392693,33.821701403556126,0.06440794232172213,0.046874096520427205,715.3846153846154,45.61846153846145,0.06376774193548376,53.846153846153925,8.484848484848486,53.93939393939394,11.785714285714285,179.6875,,,0.04414162984343342,0.021656339492032037,0.004343694026827189,2.0382775149823606,0.6293211156889025,0.3087514389297223,-3.832457050212295,2021-10-14 14:56:04,2021-10-14 14:56:04.510,1.254781593692789,1.6161132716764741,1.1152816837766708,0.885583618628086,0.4768208882124079,1.1265609438588522,0.8828278682754451,0.6524825265607795,0.6282376909891024,0.4297752715971917,0.8411624255718051,0.851111296380009,0.4064056353486326,0.2474950537649073,0.1204483059418224,0.5445557996130685,-0.05358869022487669,-0.266254644483701,-0.5426960806672775,0.2981630272875915,744.2124542124542,889.2673992673992,799.0109890109891,806.6666666666667,760.3296703296703,-0.132385,0.161987,0.9921260000000001,4.26178,-6.74408,-0.037384,68.0,54.0,14.0
719.7668997668998,46.17123064108207,,,,,,,33.851270293817976,33.95286363842506,0.06414747699016843,0.04703087944830595,715.3846153846154,34.21384615384618,0.04782580645161294,53.846153846153925,8.484848484848486,54.54545454545454,11.785714285714285,179.6875,,,0.042646729820651035,0.022254718913277044,0.004099491897220476,1.916300537734864,0.6180601225224365,0.32252776135678896,-3.8052012068669625,2021-10-14 14:56:05,2021-10-14 14:56:05.510,1.397762546768757,1.6161132716764741,1.004708025741438,1.180482434379376,0.6053575465764109,1.1265609438588522,0.5868655719470156,0.5759847581940787,0.4896418193302837,0.4297752715971917,0.517270001024132,0.7347522289589905,0.3094622069355518,0.2474950537649073,0.1010435720391689,0.5213622218891834,-0.1219730207386221,-0.266254644483701,-0.4824176535482623,0.1863568251752978,757.9120879120877,849.3772893772895,811.5018315018315,819.96336996337,782.4908424908424,-0.120728,0.165466,0.9893799999999999,3.506622,-6.347809,-0.089722,44.0,38.0,6.0
720.6526806526808,46.44845047420634,,,,,,,33.57837960430665,33.680927535365015,0.06445330978598306,0.0465944004730481,715.3846153846154,34.21384615384618,0.04782580645161294,53.846153846153925,8.484848484848486,53.93939393939394,11.785714285714285,171.875,,,0.04072482929604368,0.023089344795532783,0.0038088583536545774,1.763793197974285,0.6022331123501058,0.3414420199838451,-3.768384032132124,2021-10-14 14:56:06,2021-10-14 14:56:06.510,0.98952008608687,1.6161132716764741,1.010288754032255,0.9523707123854313,0.8250519302065633,1.1265609438588522,0.4380708075783367,0.7056602397957542,0.8094985581865021,0.4297752715971917,0.4933519717888762,0.9627490224670858,0.2824782590539138,0.2474950537649073,-0.1038726237714393,0.4057252762460484,-0.1304967406240989,-0.266254644483701,-0.4011481091811891,0.1659669148387448,830.8424908424909,835.2747252747251,788.5347985347986,793.7728937728937,632.1978021978023,-0.120117,0.16534400000000002,0.9912719999999999,4.5159910000000005,-6.130980999999999,0.762634,37.0,41.0,-4.0
721.0722610722611,47.334012185233796,,,,,,,33.771237231351755,33.872025042839816,0.06564392328009731,0.04683474743728553,715.3846153846154,34.21384615384618,0.04782580645161294,53.846153846153925,8.484848484848486,54.54545454545454,11.785714285714285,171.875,,,0.039172402268116656,0.023774662390887488,0.0035938339568238353,1.6476533556636714,0.5886966224228114,0.3572939783718558,-3.7391348708244823,2021-10-14 14:56:07,2021-10-14 14:56:07.517,1.071910053035654,1.6161132716764741,1.1264956925479521,1.095685637021452,1.026815834685622,1.1265609438588522,0.4110231821379612,0.936567524058602,0.9036781157007632,0.4297752715971917,0.4582401348869314,0.9627490224670858,0.3010494105406306,0.2474950537649073,-0.1034006447282552,0.4279814359899939,-0.01344295660767964,-0.266254644483701,-0.6066536357695963,0.1768533314038618,784.1025641025641,830.0366300366301,805.4578754578755,794.981684981685,633.4065934065934,-0.123108,0.162354,0.9846799999999999,4.605713,-4.0898129999999995,0.411224,33.0,41.0,-8.0
721.4452214452214,48.07439302001586,,,,,,,33.771237231351755,33.873070614879346,0.06663623458994122,0.04681053561308531,715.3846153846154,34.21384615384618,0.04782580645161294,53.846153846153925,8.484848484848486,54.54545454545454,11.785714285714285,171.875,,,0.037123801226663686,0.02448171746521453,0.003341559076896611,1.5163887615079286,0.5716007940931873,0.3769487143420765,-3.709828665906211,2021-10-14 14:56:08,2021-10-14 14:56:08.510,0.980625865197176,1.6161132716764741,0.7762924547901126,0.9617220418486784,0.7802916838984842,1.1265609438588522,-0.04005283302201616,0.6636252212319299,0.7577741058387663,0.4297752715971917,0.1761176141565071,0.8634906670761919,0.5646220436049317,0.2474950537649073,0.01542572050874808,0.7315585421079319,-0.1293348065638211,-0.266254644483701,-0.5037703140501262,0.458323623396091,761.1355311355313,786.1172161172162,801.8315018315019,818.7545787545787,759.9267399267401,-0.121399,0.157227,0.9961549999999999,3.55896,-5.973969,-0.239258,29.0,38.0,-9.000000000000004
721.8181818181818,48.859786762871636,,,,,,,33.69101405074288,33.78948638575191,0.06768988090574156,0.04667520838264128,715.3846153846154,34.21384615384618,0.04782580645161294,53.846153846153925,8.484848484848486,53.93939393939394,11.785714285714285,171.875,,,0.03545855424697377,0.02486101730905876,0.0031534259481142447,1.4262712505354125,0.5586399830046977,0.3916786395259584,-3.694454272213956,2021-10-14 14:56:09,2021-10-14 14:56:09.512,0.6498297532485511,1.6161132716764741,1.1496028621629428,1.069850362934601,0.6350242559876857,1.1265609438588522,0.5457381640393186,0.5722308791459596,0.6870529617010632,0.4297752715971917,0.5112369056817405,0.8699723870248031,0.4432038958768287,0.2474950537649073,0.001532445677352081,0.5972070731685136,-0.03068211992798594,-0.266254644483701,-0.5284128635911621,0.4126994343394238,816.3369963369963,854.2124542124542,812.7106227106227,778.4615384615387,699.0842490842491,-0.12353499999999999,0.154907,0.992432,4.194489,-4.837494,-0.082245,28.000000000000004,34.0,-5.9999999999999964
722.2843822843823,49.03914572913607,,,,,,,33.86725421079926,33.969386213704176,0.06789451209513771,0.04688908557552728,715.3846153846154,45.61846153846145,0.06376774193548376,53.846153846153925,8.484848484848486,54.54545454545454,11.785714285714285,171.875,,,0.03388640442436513,0.025083976928678343,0.0029847569462168877,1.3509183380575922,0.5469506703493175,0.4048732295215908,-3.68552600606425,2021-10-14 14:56:10,2021-10-14 14:56:10.516,1.27941638367901,1.6161132716764741,0.5916169017210245,1.018067318962847,1.0073477390983259,1.1265609438588522,0.2552215436479756,0.8430255116152261,0.8584961818157117,0.4297752715971917,-0.01059621105797645,0.8126208301930598,0.42658241919158296,0.2474950537649073,0.001007340209774767,0.5025771539649807,0.02683211789593086,-0.266254644483701,-0.4809577317975502,0.4570122800031562,827.6190476190477,852.1978021978023,799.0109890109891,777.6556776556778,642.2710622710622,-0.11480699999999999,0.15576199999999998,0.995117,3.8056949999999996,-6.437531,0.276642,23.0,31.0,-8.0
722.5641025641028,49.04289119038679,,,,,,,33.86725421079927,33.96938621370418,0.06787341222232379,0.04687093379067322,715.3846153846154,45.61846153846145,0.06376774193548376,53.846153846153925,8.484848484848486,54.54545454545454,11.785714285714285,171.875,,,0.03219750236974391,0.025181862449551444,0.002806411258817723,1.2785989294575564,0.5349686332524127,0.4184022220942829,-3.681631287670289,2021-10-14 14:56:11,2021-10-14 14:56:11.510,1.326225696469744,1.6161132716764741,1.698682623963685,1.334485076624122,1.06048476667986,1.1265609438588522,1.1852623226221002,0.9980829105926065,0.9416085176743074,0.4297752715971917,0.8947516873227587,1.112784478618381,0.4322220759678939,0.2474950537649073,0.0520262417581807,0.5130698348203849,0.1384753235411183,-0.266254644483701,-0.1942286047293439,0.4740679145060185,767.1794871794873,855.0183150183151,795.7875457875458,791.7582417582418,713.5897435897436,-0.12023900000000001,0.157104,0.99231,3.4916690000000004,-4.61319,0.112152,20.0,30.0,-10.0
722.843822843823,48.82383590263319,,,,,,,34.04258197890469,34.14477299616843,0.06754410061989563,0.047095348819574695,715.3846153846154,45.61846153846145,0.06376774193548376,53.846153846153925,9.090909090909092,54.54545454545454,11.0,171.875,,,0.03115104331444678,0.025153959816267703,0.002690874285704962,1.2384150862124148,0.5280206800649595,0.4263680941418963,-3.682739946867088,2021-10-14 14:56:12,2021-10-14 14:56:12.510,0.8265479872584597,1.6161132716764741,1.500756422581571,1.6044959507204568,1.005756151553154,1.1265609438588522,1.002049743869846,1.157787291724952,1.2277874043021761,0.4297752715971917,0.900293839076129,1.427973923724998,0.5787338706084193,0.2474950537649073,0.03280135006865288,0.7412208875299524,0.2887244487815751,-0.266254644483701,-0.3142161214182324,0.3274828504263946,773.2234432234433,826.8131868131868,805.054945054945,777.2527472527472,779.2673992673992,-0.126404,0.164734,0.986023,4.26178,-5.8992,1.0916139999999999,17.0,29.0,-11.999999999999995
723.4498834498836,48.485550951146976,,,,,,,34.090242146569985,34.192031771843354,0.06701991673553953,0.047121774329419136,715.3846153846154,45.61846153846145,0.06376774193548376,53.846153846153925,9.090909090909092,54.54545454545454,11.0,171.875,,,0.03041521199855487,0.025047206740154912,0.002597887243108104,1.2143155248442987,0.5238555237390529,0.4313998405037458,-3.686992965047719,2021-10-14 14:56:13,2021-10-14 14:56:13.510,0.9259907514628978,1.6161132716764741,0.5657528919448096,0.8859606830774951,1.007213527128588,1.1265609438588522,0.4335150941674454,0.971684716375256,1.212326043633104,0.4297752715971917,0.4288351598198307,1.378841939523695,0.6436118952797695,0.2474950537649073,0.1207943921629793,0.7291756512237749,0.18481598133246305,-0.266254644483701,-0.3749308147783945,0.367406726492981,809.0842490842491,824.7985347985347,804.2490842490844,777.2527472527472,705.5311355311355,-0.120728,0.15704300000000002,0.9921260000000001,4.306641,-4.8823550000000004,0.037384,32.0,30.0,2.0
724.1557223264541,48.72414518610425,,,,,,,34.18934505378449,34.29143819149469,0.06728407120718588,0.04721269748990771,715.3846153846154,45.61846153846145,0.06376774193548376,53.846153846153925,9.146341463414632,54.878048780487816,10.933333333333335,171.875,,,0.02994794517902088,0.024817427098262998,0.0025098814486572947,1.2067304584171408,0.5228775645817318,0.4333010416158604,-3.6962091670180386,2021-10-14 14:56:14,2021-10-14 14:56:14.511,0.7992284734604991,1.405177388618974,0.3420893134711235,1.020142043064157,0.683440487065782,1.231801440010555,-0.005569983526933936,0.3616106791801177,0.6598482773274186,0.6758216399363127,0.4391770467676367,0.7629636697457746,0.4579248087537504,0.5272529463095524,0.1205817420326039,0.5072868224103764,0.008402841393554353,1.138208576565507,-0.3174943602035106,0.2029661435835857,738.5714285714287,814.7252747252749,809.0842490842491,785.3113553113553,1087.912087912088,-0.127808,0.160889,0.9898680000000001,3.5365300000000004,-5.600128,-0.119629,27.0,26.0,1.0
725.0,49.62834245153912,,,,,,,34.48009848751474,34.57906521300321,0.06845288614005396,0.04755875653450309,715.3846153846154,45.61846153846145,0.06376774193548376,55.76923076923082,9.75609756097561,54.878048780487816,11.714285714285715,171.875,,,0.0299606012228949,0.02457690838376151,0.0024584175409224627,1.2190549256671566,0.5256621432846995,0.4312046423970754,-3.7059479604700822,2021-10-14 14:56:15,2021-10-14 14:56:15.509,1.061809013997569,1.492948734097284,0.1550078810088156,1.499777878140518,0.4892179682637865,1.208552624043434,0.1659825043304489,0.4625674968625134,0.2713304969747452,0.7595814244831103,0.3703894096277386,0.4996031214093807,0.4483884463207058,0.5210223748256309,-0.07815332474668699,0.5194952364620846,-0.01547585898537189,1.105162644612085,-0.3301061902461067,0.07240045318233902,747.4358974358977,869.1208791208792,824.3956043956044,752.6739926739926,729.7069597069597,-0.11486800000000001,0.164673,0.9888309999999999,4.11972,-5.802002,-0.8374020000000001,21.0,24.0,-3.0
726.0028315243039,52.250181982891455,,,,,,,35.05315667420492,35.14003404814074,0.07196966694081318,0.04828239664108179,715.3846153846154,45.61846153846145,0.06376774193548376,57.692307692307736,10.429447852760736,54.60122699386503,11.642857142857142,171.875,,,0.030481835794299188,0.02423763286350112,0.0024165631565305017,1.25762428888842,0.5334958488778663,0.4242092440417232,-3.7198487766954935,2021-10-14 14:56:16,2021-10-14 14:56:16.510,1.4027670613787109,1.533518774034299,0.8498520368412624,1.7894052395757358,0.5532020151332613,1.108020049162024,0.3491717126340783,0.8011002216895735,0.1983411541046484,0.7217683914673672,0.5215882891326606,0.431711282042,0.4296571938592426,0.5395891770482212,-0.2276058240649354,0.4676284473920944,0.1075528884379995,1.0713623072872809,-0.4140429182358646,0.004695856474814763,757.1062271062273,854.2124542124542,805.054945054945,817.1428571428571,998.8644688644687,-0.116577,0.16528299999999999,0.9893799999999999,4.463654,-4.538422,0.844879,20.0,25.0,-5.0
727.3242095327985,55.02145215649042,,,,,,,35.0739906473217,35.15746119590571,0.07564914165559512,0.048223323502254535,715.3846153846154,45.61846153846145,0.06376774193548376,61.53846153846154,10.429447852760736,54.60122699386503,11.642857142857142,171.875,,,0.03132105559997625,0.023958215585045683,0.0023995319468301307,1.3073200501428963,0.5430254079367289,0.4153729669160766,-3.731443983255946,2021-10-14 14:56:17,2021-10-14 14:56:17.510,1.309345032475467,1.533518774034299,1.215327378308657,1.129386032452481,0.590736775945727,1.108020049162024,0.5464747032497702,0.2961513118248675,0.6276920972576855,0.7217683914673672,0.7842555779844479,0.5869675975343533,0.3002202965910177,0.5395891770482212,0.1729252348757123,0.6693808688525037,0.2151246217221886,1.0713623072872809,-0.4205837814998291,0.4590184818856649,837.6923076923077,783.2967032967032,821.5750915750915,787.7289377289377,676.5201465201467,-0.16864,0.160339,0.987183,3.55896,-0.9944149999999999,0.336456,13.0,26.0,-13.0
728.4096271826334,56.80598881726952,,,,,,,35.183166602996195,35.278084811319324,0.07798632348804284,0.04830134760722315,715.3846153846154,45.61846153846145,0.06376774193548376,61.53846153846154,10.429447852760736,55.214723926380366,11.642857142857142,171.875,,,0.032538222165724905,0.023697240997515225,0.0023954781637100524,1.3730806117529335,0.5549667364929113,0.4041763693570889,-3.7423966512245936,2021-10-14 14:56:18,2021-10-14 14:56:18.519,1.2684482539811421,1.533518774034299,1.1449404891935748,1.2388321617769609,0.613838161084325,1.108020049162024,0.559015997033565,0.3547027711374571,0.5065632529447496,0.7217683914673672,0.7314771342467528,0.4697806161176268,0.3499419456369064,0.5395891770482212,0.34034159942732,0.697943188666372,0.2263702548428848,1.0713623072872809,-0.4148285627972849,0.4304745382389368,761.9413919413921,1025.0549450549452,838.901098901099,834.4688644688645,789.7435897435898,-0.649841,0.068909,0.77356,4.231873,-0.680389,1.375732,13.0,30.0,-17.0
729.6904315196997,58.177991466301705,,,,,,,35.66012934928625,35.766231882740286,0.07972968940422655,0.04887021647662036,715.3846153846154,45.61846153846145,0.06376774193548376,61.53846153846154,10.975609756097562,55.487804878048784,11.714285714285715,171.875,,,0.03411469459298869,0.023465381595237297,0.0024003920157978803,1.453830804094524,0.5687633927255683,0.3912170461127393,-3.752229067552312,2021-10-14 14:56:19,2021-10-14 14:56:19.511,1.5862441283149251,1.533518774034299,1.46558805162697,1.6690003495345929,0.6487377208211843,1.108020049162024,0.6861376307724293,0.9737563991751128,0.4699943060621726,0.7217683914673672,0.4894105211687456,0.5878025093124909,0.5838314635521502,0.5395891770482212,-0.08875644058879907,0.4698381140118583,0.06391909850844495,1.0713623072872809,-0.3849750517414405,0.3246248432164444,750.6593406593408,552.014652014652,802.2344322344322,768.7912087912088,616.080586080586,-0.332336,0.157288,0.929932,4.7253419999999995,-9.667511,0.9420780000000001,20.0,33.0,-13.0
729.5894289759323,58.41793009235917,,,,,,,36.6725435092734,36.7842835440394,0.08006959499722448,0.05026463111005842,715.3846153846154,45.61846153846145,0.06376774193548376,61.53846153846154,11.65644171779141,55.828220858895705,11.642857142857142,187.5,,,0.035652609515332084,0.02267081685200259,0.002357015837737591,1.5726213020058326,0.5875469627403587,0.373609947920049,-3.7866767828223633,2021-10-14 14:56:20,2021-10-14 14:56:20.510,1.305963442892483,1.533518774034299,1.3082028256134322,1.266226166075871,0.664727878993454,1.108020049162024,0.4581400042842825,0.7985213182286595,0.6871589905022797,0.7217683914673672,0.52287138814094,0.8092675340046523,0.5130660771184494,0.5395891770482212,-0.04388311094505321,0.4555221871746362,0.1080056938770012,1.0713623072872809,-0.4631992607141883,0.3039124230015999,786.9230769230769,711.1721611721613,803.8461538461539,791.3553113553114,620.5128205128206,-0.299744,0.176147,0.9438479999999999,4.3365480000000005,-6.833800999999999,0.426178,28.000000000000004,36.0,-7.9999999999999964
729.3062765455403,58.411485465904725,,,,,,,36.6725435092734,36.78576371747981,0.08009184528423201,0.05028414630267266,715.3846153846154,45.61846153846145,0.06376774193548376,61.53846153846154,11.65644171779141,55.828220858895705,10.866666666666667,171.875,,,0.039563339360236434,0.023562961297260373,0.002479505708471208,1.6790478438224312,0.6030463087297604,0.3591596933634108,-3.748079236362984,2021-10-14 14:56:21,2021-10-14 14:56:21.510,0.5931768782415444,1.533518774034299,1.0206492051376461,0.7139285371685379,0.54237003985005,1.108020049162024,0.4533677829263276,0.5860923477673654,0.7829086779532096,0.7217683914673672,0.7311166483208925,0.97856042789413,0.561622694472422,0.5395891770482212,0.1981466982002071,0.5776284399965106,-0.005826504020010004,1.0713623072872809,-0.4522473472714326,0.2788627008894712,784.1025641025641,686.9963369963369,796.5934065934067,810.2930402930403,697.0695970695973,-0.294556,0.176208,0.9526979999999999,4.067383,-5.861816,1.069183,37.0,37.0,0.0
730.0187617260788,58.738937957644424,,,,,,,36.94018008789517,37.04527792648128,0.08046223061275888,0.050601685908116485,715.3846153846154,45.61846153846145,0.06376774193548376,61.53846153846154,12.80487804878049,56.09756097560976,10.933333333333335,171.875,,,0.04140175922436752,0.023098661481574446,0.0024538869363685298,1.7923878081590683,0.6183584101197466,0.34499141720610804,-3.7679806076538247,2021-10-14 14:56:22,2021-10-14 14:56:22.512,0.7299748014167385,1.533518774034299,0.9005440752188911,0.4082266386657173,0.3903417200864115,1.108020049162024,0.414128007507771,0.4854383814249894,0.6229529273613863,0.7217683914673672,0.6941500483741448,0.9380512662921732,0.4190680554253745,0.5395891770482212,0.1349436131562601,0.5624264202729387,-0.04292242708081465,1.0713623072872809,-0.4186269202299938,0.2632199457155976,747.4358974358977,753.8827838827838,796.9963369963368,799.4139194139194,862.6739926739926,-0.30938699999999997,0.177429,0.947449,3.8056949999999996,-4.6804809999999994,-0.859833,42.0,38.0,4.0
731.4299197734781,59.843702561055146,,,,,,,37.24574114444603,37.34653430263681,0.08181741126967924,0.050921817849591024,715.3846153846154,45.61846153846145,0.06376774193548376,61.53846153846154,13.496932515337427,56.44171779141104,10.866666666666667,171.875,,,0.03979959455998093,0.02055297913676837,0.002195916827183466,1.9364392040266916,0.6362998407571886,0.3285927280515944,-3.8847493783880065,2021-10-14 14:56:23,2021-10-14 14:56:23.515,0.7296880789131462,1.4010831327574382,0.5770513513294846,0.1813471322786598,0.234286853850272,0.7046273805681591,0.2386408358956962,0.099028928387735,0.4182337654000938,0.923513188067604,0.3341870014942621,0.5438335118503267,0.2852209035106715,0.5838241558122147,0.1096125221899333,0.4564342385890539,-0.07414841278836913,0.146731684712179,-0.5675768897197541,0.1831330468927354,825.6043956043958,765.9706959706958,810.2930402930403,770.8058608058608,966.2271062271063,-0.307312,0.171631,0.9522709999999999,4.396362,-6.2431339999999995,0.9196469999999999,44.0,26.0,18.0
732.8456819254366,61.97059427283159,,,,,,,37.55824366276895,37.64759599537687,0.08456158752278327,0.05124986690798338,723.0769230769231,45.61846153846162,0.06308936170212777,61.53846153846154,14.11042944785276,57.05521472392638,11.642857142857142,171.875,,,0.0375291154690574,0.018343036394225232,0.001955562054217461,2.0459598216177746,0.6489814818306378,0.31720147921452196,-3.9985052645584918,2021-10-14 14:56:24,2021-10-14 14:56:24.510,1.048146322066302,1.382921204291957,0.9505038216173836,1.067554690960606,0.6475264248379111,0.7190777500669776,0.7500772486576089,0.4099433174248979,1.130676369829823,1.062353802183585,0.9508897113998604,0.7498276720139558,0.4824404672454769,0.6638381283908047,0.1328259244898183,0.4150156953780829,0.1015946080231233,0.05963846382493247,-0.6085038685577704,0.1926297866251713,795.7875457875458,635.8241758241759,786.9230769230769,765.9706959706958,724.8717948717949,-0.198364,0.16095,0.9782709999999999,1.203766,-10.789032,-1.899109,38.0,15.0,23.0
