HRV_MeanNN,HRV_SDNN,HRV_SDANN1,HRV_SDNNI1,HRV_SDANN2,HRV_SDNNI2,HRV_SDANN5,HRV_SDNNI5,HRV_RMSSD,HRV_SDSD,HRV_CVNN,HRV_CVSD,HRV_MedianNN,HRV_MadNN,HRV_MCVNN,HRV_IQRNN,HRV_pNN50,HRV_pNN20,HRV_HTI,HRV_TINN,HRV_ULF,HRV_VLF,HRV_LF,HRV_HF,HRV_VHF,HRV_LFHF,HRV_LFn,HRV_HFn,HRV_LnHF,Time,TimeStamp,Delta_TP9,Delta_AF7,Delta_AF8,Delta_TP10,Theta_TP9,Theta_AF7,Theta_AF8,Theta_TP10,Alpha_TP9,Alpha_AF7,Alpha_AF8,Alpha_TP10,Beta_TP9,Beta_AF7,Beta_AF8,Beta_TP10,Gamma_TP9,Gamma_AF7,Gamma_AF8,Gamma_TP10,RAW_TP9,RAW_AF7,RAW_AF8,RAW_TP10,AUX_RIGHT,Accelerometer_X,Accelerometer_Y,Accelerometer_Z,Gyro_X,Gyro_Y,Gyro_Z,Attention,Meditation,A_M
865.1880965749581,53.83064007259696,,,,,,,40.36575728627935,40.50603420514528,0.062218424277561926,0.0466554700025073,861.5384615384614,45.61846153846162,0.0529500000000001,69.23076923076917,22.62773722627737,68.61313868613139,15.222222222222221,109.375,,,0.06545727856882652,0.0412728325689456,0.000798263847829808,1.5859652583689572,0.6087442368360096,0.3838320124755168,-3.1875508025124546,2021-10-14 15:47:00,2021-10-14 15:47:00.514,0.09234383369558098,-0.1011215107019013,0.6874239063483153,0.9958207086304932,0.22648978429639802,-0.02622164261967817,0.3357338891010097,0.3754988810871543,0.981326894132458,0.7346029179849332,0.7524989357333396,0.3967310612716344,1.4163694026562088,1.232862327310861,1.303281054639371,1.1558113708540692,1.052830391644989,1.528332682140108,1.1853726929317492,1.205453259037478,900.1465201465203,790.5494505494507,772.8205128205127,809.4871794871796,1021.025641025641,-0.676758,0.021301,0.744263,4.1122440000000005,-5.555267,0.72525,76.0,97.0,-21.0
865.4688377316115,53.830935052949584,,,,,,,40.87985503716201,41.03062909596027,0.062198582671145176,0.04723434658179936,861.5384615384614,45.61846153846162,0.0529500000000001,69.23076923076917,23.357664233576642,69.34306569343065,15.222222222222221,109.375,,,0.06547684882401902,0.044325851407774605,0.0008523880618737182,1.4771706971100529,0.5917201805510302,0.4005767117562484,-3.1161872189091153,2021-10-14 15:47:01,2021-10-14 15:47:01.514,1.256621402964598,-0.1011215107019013,0.6874239063483153,0.9725097535276572,0.4086894525212959,-0.02622164261967817,0.3357338891010097,0.5929230330725317,1.001738611681745,0.7346029179849332,0.7524989357333396,1.015215162065688,1.121387916892448,1.232862327310861,1.303281054639371,1.117760669946946,1.1054238810656591,1.528332682140108,1.1853726929317492,1.136177289418805,713.1868131868132,739.7802197802197,782.0879120879123,793.7728937728937,642.6739926739926,-0.686951,0.017334,0.742432,3.955231,-5.959015,0.014953999999999999,81.0,95.0,-14.0
865.5811341942731,53.83872194971673,,,,,,,40.23620651420399,40.37821060562378,0.06219950946577937,0.046484615854824406,861.5384615384614,45.61846153846162,0.0529500000000001,69.23076923076917,22.62773722627737,68.61313868613139,15.222222222222221,109.375,,,0.0642856166625786,0.046424343885395215,0.0008835787025280297,1.3847393690964458,0.576069341418343,0.4160128283160123,-3.0699313046295535,2021-10-14 15:47:02,2021-10-14 15:47:02.514,0.8438614009393058,-0.1011215107019013,0.6874239063483153,0.6991001967602893,0.3943658465881866,-0.02622164261967817,0.3357338891010097,0.7496894397812391,0.916339542661912,0.7346029179849332,0.7524989357333396,1.010315735296275,0.996973952332886,1.232862327310861,1.303281054639371,1.05002160188098,1.054494626811544,1.528332682140108,1.1853726929317492,1.036457282287494,717.6190476190477,695.054945054945,814.7252747252749,799.8168498168499,873.956043956044,-0.6870729999999999,0.019469999999999998,0.734863,4.3365480000000005,-4.067383,0.224304,83.0,92.0,-9.0
867.2655811341942,53.408281011263114,,,,,,,40.11166106370122,40.24697830090104,0.06158238280529561,0.04625072404146826,869.2307692307692,57.02307692307691,0.0656017699115044,69.23076923076917,22.62773722627737,68.61313868613139,15.222222222222221,109.375,,,0.06302492134117665,0.04966824917772338,0.0009259747733472168,1.2689177167421446,0.5547033572472854,0.4371468298759722,-3.0023893995736652,2021-10-14 15:47:03,2021-10-14 15:47:03.518,0.9851443817900832,-0.1011215107019013,0.6874239063483153,0.07294604999884892,0.1433834992266558,-0.02622164261967817,0.3357338891010097,0.04375734199651408,0.9441673461146842,0.7346029179849332,0.7524989357333396,0.4262953510870524,1.1422046974078293,1.232862327310861,1.303281054639371,1.110377376821636,0.94558634931618,1.528332682140108,1.1853726929317492,0.9016660437054692,830.8424908424909,805.4578754578755,855.0183150183151,802.6373626373628,939.2307692307692,-0.695435,0.014282,0.737671,4.044951999999999,-5.054321,0.35141,81.0,87.0,-6.0
868.0516563728244,52.973623254018,,,,,,,40.19293013006091,40.33476697177241,0.061025888108283334,0.04630246349394468,869.2307692307692,57.02307692307691,0.0656017699115044,69.23076923076917,22.62773722627737,69.34306569343065,15.222222222222221,109.375,,,0.06231582465350295,0.05273258945395301,0.0009611541002681119,1.1817326874857563,0.5371610774545912,0.454553794731235,-2.9425216188519734,2021-10-14 15:47:04,2021-10-14 15:47:04.514,0.8072689907758626,-0.1011215107019013,1.0379888087212958,0.5800353770607501,0.2737678787248117,-0.02622164261967817,0.508910338448724,0.32315958527230604,1.017477852113177,0.7346029179849332,0.914193940158174,0.5481091718373471,0.9877052157396656,1.232862327310861,1.4175926353289618,0.9102714097993956,0.8754546446778897,1.528332682140108,1.3638811683783725,0.8904338158913121,901.3553113553114,819.96336996337,815.934065934066,794.5787545787546,681.7582417582418,-0.70105,0.014221000000000001,0.725403,3.656158,-3.588867,0.5906680000000001,80.0,86.0,-6.0
868.50084222347,52.58612357873149,,,,,,,40.27943640205739,40.42734777002894,0.06054815496102973,0.04637812013968465,869.2307692307692,57.02307692307691,0.0656017699115044,69.23076923076917,22.62773722627737,69.34306569343065,15.222222222222221,109.375,,,0.0618954183329189,0.05608707134592232,0.0009952450504362663,1.1035594629495458,0.5202269018968636,0.4714081292062176,-2.880849950304786,2021-10-14 15:47:05,2021-10-14 15:47:05.514,0.9136611813858284,-0.1011215107019013,0.8403253716826695,0.8620778004486902,0.4496473609443553,-0.02622164261967817,0.5278640998700531,0.5794592424903675,0.9379183453275648,0.7346029179849332,1.0308013478119171,0.6772842124740422,0.891670617926124,1.232862327310861,1.403579247051397,0.8218445568823044,0.7603177312590833,1.528332682140108,1.623583534080883,0.8090687829203879,824.7985347985347,767.5824175824176,846.5567765567764,796.9963369963368,757.9120879120877,-0.689453,0.0177,0.737488,3.7757870000000002,-5.824432,0.8822629999999999,74.0,82.0,-8.0
869.0061763054463,52.40426942283639,,,,,,,40.36036763977874,40.50559659646407,0.06030367890551891,0.04644428168666146,869.2307692307692,57.02307692307691,0.0656017699115044,69.23076923076917,22.62773722627737,70.07299270072993,13.7,187.5,,,0.06172621636015621,0.05949356755233255,0.001024188357023173,1.037527566419004,0.5049428222445856,0.48667894578202003,-2.821887080638842,2021-10-14 15:47:06,2021-10-14 15:47:06.514,0.6401752737409275,-0.1011215107019013,0.4989324033749442,0.3225646021180702,0.4125594448477438,-0.02622164261967817,0.5407572618558397,0.5407927745957677,0.9815001697028466,0.7346029179849332,1.026805382791206,0.7693929365211901,0.916289490663915,1.232862327310861,1.4569034957487308,0.8168206767779074,0.7204979467577254,1.528332682140108,1.83145168190733,0.6361257309471133,814.3223443223442,783.2967032967032,825.6043956043958,794.981684981685,794.981684981685,-0.7028810000000001,0.025208,0.722229,3.843079,-3.955231,2.7888490000000004,68.0,78.0,-10.0
870.3054298642536,52.13119875805157,,,,,,,40.58524306757645,40.72611991660695,0.0598998891299377,0.04663333316661802,869.2307692307692,51.32076923076927,0.059041592920354026,69.23076923076917,22.794117647058826,71.32352941176471,13.6,187.5,,,0.06198978305581172,0.06356015923130116,0.0010495391863819732,0.9752930736096066,0.4896527405508374,0.5020570265495775,-2.755768432104344,2021-10-14 15:47:07,2021-10-14 15:47:07.515,0.5350355005867966,-0.1011215107019013,0.4989324033749442,0.534455763689872,0.4368338682236818,-0.02622164261967817,0.5407572618558397,0.1076883025568443,1.084593524632359,0.7346029179849332,1.026805382791206,0.7531808348612896,1.067969351929372,1.232862327310861,1.4569034957487308,0.9555086506063266,0.8664924891158124,1.528332682140108,1.83145168190733,0.9734901749959076,779.2673992673992,682.5641025641024,778.8644688644687,794.1758241758242,724.8717948717949,-0.6896359999999999,0.028258999999999996,0.734558,4.523468,-9.667511,0.650482,64.0,74.0,-10.0
871.2669683257918,51.88732794133925,,,,,,,40.4554391858435,40.60031148245723,0.05955387938216555,0.046432885276922437,869.2307692307692,51.32076923076927,0.059041592920354026,65.38461538461536,22.794117647058826,70.58823529411767,13.6,187.5,,,0.06270784128014999,0.06645777032690384,0.0010581543064025344,0.9435742573320162,0.4815391479449622,0.510335190053328,-2.7111885657171206,2021-10-14 15:47:08,2021-10-14 15:47:08.516,1.324161248075734,-0.1011215107019013,0.4989324033749442,1.2725395505625419,0.7005236422255342,-0.02622164261967817,0.5407572618558397,0.49820552535753204,1.099878118284521,0.7346029179849332,1.026805382791206,0.8681898218063187,1.0194955269453159,1.232862327310861,1.4569034957487308,0.8917408083029591,0.9378063302707872,1.528332682140108,1.83145168190733,0.9086582662143178,694.6520146520148,794.5787545787546,791.3553113553114,790.952380952381,855.4212454212454,-0.4655760000000001,0.036316,0.8933110000000001,3.648682,-15.207825,1.293488,56.99999999999999,72.0,-15.000000000000007
871.7194570135747,51.799799655068334,,,,,,,40.4554391858435,40.60031148245723,0.05942255761105684,0.04640878307849165,869.2307692307692,45.61846153846162,0.052481415929203634,63.46153846153846,22.794117647058826,70.58823529411767,13.6,187.5,,,0.06042981086107284,0.06505495063022472,0.0009971122028115257,0.9289041076144784,0.4777744754732186,0.5143420849975491,-2.7325229719198503,2021-10-14 15:47:09,2021-10-14 15:47:09.515,1.290197253399761,-0.1011215107019013,0.4989324033749442,1.595081312866448,0.7721608403219444,-0.02622164261967817,0.5407572618558397,0.9057576732033542,0.9707528834407068,0.7346029179849332,1.026805382791206,0.8306525233182823,0.9094773576896048,1.232862327310861,1.4569034957487308,0.8363469946390726,0.7638431058013827,1.528332682140108,1.83145168190733,0.6940384173935754,745.8241758241759,776.8498168498169,774.0293040293042,778.8644688644687,694.2490842490844,-0.437012,0.023926,0.907593,3.192596,-6.086121,1.046753,55.00000000000001,70.0,-14.999999999999993
872.5678733031675,51.56079973341718,,,,,,,40.48251598372514,40.621655545507004,0.059090875691114,0.04639468999755367,873.0769230769231,51.32076923076927,0.05878149779735688,69.23076923076928,22.794117647058826,71.32352941176471,13.6,187.5,,,0.0573772379187869,0.06161105793637616,0.0009086441956560489,0.93128149135239,0.4785546478039155,0.5138668085295748,-2.786913912598848,2021-10-14 15:47:10,2021-10-14 15:47:10.514,0.9768963587642102,-0.1011215107019013,1.002099658587681,0.6217343418309148,0.5814870679113989,-0.02622164261967817,0.623771923876013,0.5396601106199904,0.9626221835689358,0.7346029179849332,0.8024374112874871,0.7867517747063184,0.8305733739189961,1.232862327310861,1.0613463078580891,0.8417340695289208,0.4725876657249301,1.528332682140108,0.8048753326151965,0.5255074751707097,878.3882783882782,748.6446886446887,777.2527472527472,799.4139194139194,688.6080586080586,-0.406982,0.007812,0.9246219999999999,4.015045,-4.844971,0.7102970000000001,54.0,66.0,-12.0
873.3597285067873,51.5370420201271,,,,,,,42.26752820298455,42.42248244338112,0.0590100966851789,0.04839647034704792,876.9230769230769,57.02307692307691,0.06502631578947367,69.23076923076928,23.529411764705877,70.58823529411767,13.6,187.5,,,0.054427608339719,0.05679370287476261,0.0008005144586248872,0.9583387873077908,0.4858661070079813,0.5069878350357692,-2.8683298242819366,2021-10-14 15:47:11,2021-10-14 15:47:11.514,0.9460031388554562,0.6538933874620353,0.7742666807803481,0.7164795781463406,0.523388441019343,0.7301381544687675,0.4010670299259593,0.5237223217816558,1.255638277940979,0.8804904649787769,0.7713891473489894,1.0735621163031461,0.6835717932837622,1.4256336008927155,0.7424828945173573,0.7720194611317481,0.2016885325552878,1.036605074303332,0.3809253103573155,0.2696769710454878,671.2820512820513,774.4322344322345,813.9194139194141,763.5531135531136,685.3846153846154,-0.39257800000000004,-0.010376,0.932861,3.3944699999999997,-4.456176999999999,-0.478516,56.00000000000001,61.0,-4.999999999999994
872.7941176470587,52.338754713895845,,,,,,,42.20526321233768,42.35488521291242,0.05996689672358749,0.048356493655247884,876.9230769230769,57.02307692307691,0.06502631578947367,69.23076923076928,23.529411764705877,69.85294117647058,13.6,187.5,,,0.05276156298646716,0.05284069238768091,0.0007216309539766332,0.9985024912120152,0.4962343346220474,0.4969785643896609,-2.9404736959376905,2021-10-14 15:47:12,2021-10-14 15:47:12.514,0.9960551769546108,0.7688664713796689,0.4234383076293484,1.1428604670854328,0.5341264294236266,0.6924248889499747,0.1905168821329059,0.831302603025499,1.2678723644535959,0.8957566603044136,0.7572815173330134,1.112820391595115,0.7521927138753188,1.475705297136935,0.9155068280482676,0.7710448428218333,0.3283997366348422,1.233515594721419,0.8340610554015034,0.4105038981288347,726.0805860805863,714.7985347985347,778.8644688644687,794.1758241758242,853.4065934065933,-0.413513,-0.015381,0.926575,3.872986,-4.4711300000000005,0.059814,56.00000000000001,53.0,3.0000000000000067
872.0588235294118,53.08628534242022,,,,,,,42.18968260642472,42.342140780237386,0.06087466110092031,0.0483793999534044,876.9230769230769,57.02307692307691,0.06502631578947367,69.23076923076928,23.529411764705877,69.85294117647058,13.6,187.5,,,0.051542639022254734,0.04816641138564838,0.0006383400212923633,1.0700950629178974,0.5136420469112539,0.4799966514289609,-3.033093360063741,2021-10-14 15:47:13,2021-10-14 15:47:13.523,0.9072937790080944,0.6293634506955585,0.06482871105772982,0.8664077176085179,0.6840526105524584,0.2298363032807099,0.02047838175793889,0.4754600379829573,1.173132656585007,0.5734377284836154,0.5346874070697027,0.8963202661495244,0.7613158119008506,1.441953501834676,1.178105279612682,0.7988719729803739,0.3689060506935825,1.372365249460653,1.06600941083476,0.47354251169928296,852.1978021978023,778.8644688644687,805.8608058608058,797.8021978021977,799.8168498168499,-0.420288,-0.016113,0.917542,4.052429,-4.815062999999999,0.7775880000000001,48.0,33.0,15.0
872.0022624434389,53.1099265170476,,,,,,,42.62378680270661,42.781579458230894,0.06090572101066365,0.04888036263033358,876.9230769230769,57.02307692307691,0.06502631578947367,69.23076923076928,24.264705882352942,69.85294117647058,13.6,187.5,,,0.051182754118838936,0.04479952781060091,0.0005846584419355801,1.1424842318701305,0.5300235662639948,0.4639219968895326,-3.1055576795586872,2021-10-14 15:47:14,2021-10-14 15:47:14.514,1.071093674748823,0.6570738612265183,0.2211342611438038,0.9650895541945128,0.9430244659921422,0.159314354926685,0.1995565685891712,0.9799949139051859,1.385786440528908,0.4502209586380556,0.5274684935369611,1.0293642083319692,0.7857878594621979,1.488891088073147,1.2485701476975501,0.8719458165959748,0.6174834285310917,1.410263022747333,1.287353287953451,0.7405225713056101,705.934065934066,823.5897435897436,759.9267399267401,769.1941391941392,1053.663003663004,-0.43450900000000003,-0.015259,0.91333,3.843079,-4.463654,0.91217,42.0,32.0,10.0
872.0943290286356,52.9581537188547,,,,,,,42.54867608290457,42.70291653185307,0.06072525867453015,0.04878907552385594,876.9230769230769,57.02307692307691,0.06502631578947367,69.23076923076928,24.087591240875913,70.07299270072993,13.7,187.5,,,0.05121530950232009,0.04177892368168686,0.0005419745146154306,1.225864742053408,0.5475452850016966,0.4466604399474941,-3.1753632847536024,2021-10-14 15:47:15,2021-10-14 15:47:15.514,1.350150221499506,0.6570738612265183,0.5846280260546066,1.3009781629704342,0.6041621088435064,0.159314354926685,0.02831687948272035,0.7395610595739878,1.186543290342539,0.4502209586380556,0.2900585393988709,0.8735130216002142,1.1473765963523448,1.488891088073147,1.261745390834,1.1214515501841622,0.8945105900808764,1.410263022747333,1.402426990657291,0.9444923134294924,779.6703296703297,432.3443223443223,690.2197802197803,849.3772893772895,790.1465201465203,-0.447144,-0.020569,0.908386,3.8356019999999997,-4.740295,0.19439700000000001,38.0,23.0,15.0
871.6451431779901,52.65118639201993,,,,,,,42.36935038117693,42.52583280201904,0.06040438222377448,0.04860848558933013,876.9230769230769,57.02307692307691,0.06502631578947367,69.23076923076928,24.087591240875913,69.34306569343065,13.7,187.5,,,0.05144244927785743,0.038364858452220416,0.0005005107347516576,1.3408742102339266,0.5696345028851711,0.4248232224451491,-3.2606133828622363,2021-10-14 15:47:16,2021-10-14 15:47:16.518,1.5065839300510515,0.6570738612265183,0.5846280260546066,1.399982492518031,0.5142270768052309,0.159314354926685,0.02831687948272035,0.4900430803648615,0.8570582421555434,0.4502209586380556,0.2900585393988709,0.7803045761622678,1.292596009262335,1.488891088073147,1.261745390834,1.292949769134903,1.001738560179172,1.410263022747333,1.402426990657291,0.996535290431383,842.1245421245421,781.2820512820513,806.6666666666667,805.4578754578755,730.1098901098901,-0.44805900000000004,-0.022888,0.909241,4.0898129999999995,-4.9047849999999995,0.6654359999999999,37.0,24.0,13.0
871.5889949466592,52.63308793452568,,,,,,,42.36935038117693,42.52583280201904,0.06038750860747937,0.04861161697408755,876.9230769230769,57.02307692307691,0.06502631578947367,69.23076923076928,24.087591240875913,69.34306569343065,13.7,187.5,,,0.05094169871439179,0.035424044873267176,0.00046944301948727225,1.4380542622007302,0.5866481170226386,0.4079457447765984,-3.3403644557091074,2021-10-14 15:47:17,2021-10-14 15:47:17.515,0.5689979288682045,0.6570738612265183,0.4272982535837948,0.4338259162519004,0.2683903435609234,0.159314354926685,-0.5018992379260183,-0.054727701760137436,0.8151510939111483,0.4502209586380556,0.7954506938288342,0.4804710412734705,0.8304986093181662,1.488891088073147,1.379038448782419,0.856149961385297,0.7543635289651449,1.410263022747333,1.348188008743278,0.7427913670454257,742.6007326007326,738.1684981684982,789.7435897435898,784.9084249084249,1206.373626373626,-0.45251499999999995,-0.022095,0.904114,4.052429,-3.9851379999999996,0.49346899999999994,45.0,32.0,13.0
871.4932126696832,52.83227524048544,,,,,,,42.438285883155274,42.59446197414444,0.060622704195987975,0.04869606012553122,873.0769230769231,51.32076923076927,0.05878149779735688,69.23076923076928,24.264705882352942,69.85294117647058,13.6,187.5,,,0.0508172381322692,0.03258855226592948,0.0004457638227051512,1.5593585660875569,0.6060381182487453,0.3886457748901844,-3.4237942097665286,2021-10-14 15:47:18,2021-10-14 15:47:18.534,0.4728764016654469,0.6570738612265183,0.07358856702553497,0.37316688786366903,0.3798352947661656,0.159314354926685,-0.3157192928047127,0.1480935358325767,1.181896775151799,0.4502209586380556,0.8408802747755,0.9807069191946076,0.7905292041310057,1.488891088073147,1.391669179665108,0.7863394367829954,0.7647622879252844,1.410263022747333,1.2345088072696049,0.6514150075358666,693.040293040293,736.5567765567764,799.4139194139194,789.7435897435898,836.0805860805863,-0.458374,-0.021362,0.907898,3.843079,-4.501037999999999,0.7775880000000001,53.0,35.0,18.0
871.5497737556562,52.81735824071983,,,,,,,42.603215475831426,42.76154300177723,0.06060165446790359,0.048882137037620836,873.0769230769231,51.32076923076927,0.05878149779735688,69.23076923076928,24.264705882352942,70.58823529411767,13.6,187.5,,,0.05103956381396309,0.030902667416457183,0.0004371915570224774,1.6516232442375516,0.6195669025947964,0.3751260493314325,-3.4769127746469626,2021-10-14 15:47:19,2021-10-14 15:47:19.522,0.3353146802355543,0.6570738612265183,0.059836718575480126,9.311584820073889e-05,0.3471808708276032,0.159314354926685,0.1371810902189611,0.2208491654854086,1.237634133140822,0.4502209586380556,0.5953523718364969,1.045397574671246,0.8859086276486366,1.488891088073147,1.489748564220106,0.8190142449352376,0.6944229006885869,1.410263022747333,1.188990935495786,0.6893153647111385,900.952380952381,750.2564102564102,800.6227106227108,809.0842490842491,761.1355311355313,-0.46362299999999995,-0.024536000000000002,0.899048,3.798218,-5.7720949999999975,1.286011,61.0,40.0,21.0
871.8325791855203,52.74179337225942,,,,,,,42.603215475831426,42.76154300177723,0.060495322876706024,0.04886628062882442,876.9230769230769,51.32076923076927,0.05852368421052636,69.23076923076928,24.264705882352942,70.58823529411767,13.6,187.5,,,0.051416493632594984,0.029640931733673968,0.00043579413873027584,1.7346449866885458,0.6309297134768472,0.3637226742754425,-3.5185990440390773,2021-10-14 15:47:20,2021-10-14 15:47:20.521,0.672004997026725,0.6570738612265183,0.4070803908675009,0.506486671321752,0.4916980317563192,0.159314354926685,0.2013276150545962,0.3631089198404008,1.406331260684047,0.4502209586380556,0.7444860872936686,1.066199720422784,0.8245806525054518,1.488891088073147,1.509205383457906,0.9733295110463888,0.5993579866737561,1.410263022747333,1.293513998013429,0.7420175952354847,784.9084249084249,670.0732600732601,767.9853479853481,815.5311355311355,763.956043956044,-0.48669399999999996,0.044739,0.8794559999999999,1.7420959999999999,-2.4299619999999997,16.194763000000002,66.0,44.0,22.0
872.2850678733032,52.850206671124226,,,,,,,42.603215475831426,42.755423128546674,0.06058822811214345,0.0488409317606471,876.9230769230769,57.02307692307691,0.06502631578947367,69.23076923076928,24.264705882352942,70.58823529411767,13.6,187.5,,,0.05199186997023799,0.028584701406149576,0.00044235041509365627,1.8188704940976819,0.6417250294202841,0.35281512977571033,-3.5548836201437592,2021-10-14 15:47:21,2021-10-14 15:47:21.514,0.5165133917211276,0.6570738612265183,0.5702681523472682,0.6241568264499621,0.5405370996839691,0.159314354926685,0.3126505745737218,0.6691903265752126,1.4148675177898669,0.4502209586380556,0.7798807373775927,1.160005415866305,0.8574897282966472,1.488891088073147,1.471944068491292,1.0982365517253578,0.6300047830340463,1.410263022747333,1.374379033489407,0.663829900238818,689.4139194139194,772.8205128205127,774.0293040293042,800.2197802197803,914.2490842490844,-0.46948199999999995,0.19873,0.874878,4.575806,-5.413208,-5.114136,49.0,50.0,-1.0
873.0203619909503,52.74823968906775,,,,,,,42.35040578884631,42.492743389492674,0.060420400239891016,0.0485102153771819,876.9230769230769,57.02307692307691,0.06502631578947367,69.23076923076928,23.529411764705877,69.85294117647058,13.6,187.5,,,0.05249091964876166,0.02812565241282291,0.0004528681438134276,1.8663005173465863,0.6474809683620655,0.3469328558525086,-3.5710732218262273,2021-10-14 15:47:22,2021-10-14 15:47:22.514,1.0184069796102941,0.6570738612265183,0.6388940297979364,1.014816444768186,0.6517557909321742,0.159314354926685,0.1955968227706775,0.8396372038061172,1.21708493457493,0.4502209586380556,0.7676212153727832,1.1842106278952458,0.7467267467830779,1.488891088073147,1.3189268155764615,0.8862135037071622,0.6498617184977975,1.410263022747333,1.0780626552331651,0.5663684729578962,773.6263736263736,730.5128205128206,819.96336996337,787.7289377289377,677.7289377289378,-0.46850600000000003,0.159668,0.8788450000000001,3.22998,-6.0786440000000015,1.532745,46.0,50.0,-4.0
874.9857549857552,50.38681530432326,,,,,,,42.17440647701635,42.327012640641016,0.05758586927525872,0.04820010638653534,876.9230769230769,45.61846153846162,0.05202105263157904,65.38461538461536,22.962962962962962,69.62962962962963,12.272727272727273,171.875,,,0.05297995407765616,0.02798047666348874,0.00046696847276932646,1.8934614558153269,0.650640381359534,0.34362483554193474,-3.5762482740254096,2021-10-14 15:47:23,2021-10-14 15:47:23.514,1.004557728746263,0.6570738612265183,0.5778377699745573,1.145716087858807,0.5887834469766773,0.159314354926685,0.1922650462034535,0.8369966812909897,1.090123483944729,0.4502209586380556,0.9342287111377514,1.02342804901477,0.7279347337991534,1.488891088073147,1.227812280179185,0.7831329918653357,0.5681977653495907,1.410263022747333,1.183881442532573,0.6626808709701253,812.7106227106227,707.948717948718,768.7912087912088,803.8461538461539,1095.164835164835,-0.488525,0.117432,0.8813479999999999,1.816864,-6.108551,-4.2916870000000005,41.0,46.0,-5.0
876.0180995475113,49.81718780912082,,,,,,,42.16889951028357,42.31942300656578,0.05686776087714721,0.048137018552544784,876.9230769230769,45.61846153846162,0.05202105263157904,63.46153846153846,23.529411764705877,69.11764705882352,12.363636363636365,171.875,,,0.053496187034315856,0.028170424982501344,0.00048390913241909785,1.899019523757492,0.6511971718004516,0.3429123100914525,-3.5694826108568782,2021-10-14 15:47:24,2021-10-14 15:47:24.514,1.286048519728288,0.6570738612265183,0.8583877495030039,1.063833259908658,0.8803668815833222,0.159314354926685,0.4566219081029724,0.8340156784718247,1.453413520936125,0.4502209586380556,0.8588778386712294,1.0708139591562809,0.8106988590718557,1.488891088073147,1.3685657444092818,0.8670296737543441,0.7054867837047596,1.410263022747333,1.330617175692941,0.8286106708851646,860.2564102564102,751.8681318681319,808.6813186813188,794.1758241758242,755.4945054945055,-0.45556599999999997,-0.001953,0.899292,2.7215580000000004,-6.452483999999999,-2.915955,42.0,42.0,0.0
876.4140271493213,49.66865627405718,,,,,,,42.35040578884631,42.506750861734574,0.056672593928708034,0.04832237330408537,876.9230769230769,45.61846153846162,0.05202105263157904,63.46153846153846,23.529411764705877,69.85294117647058,12.363636363636365,171.875,,,0.05407905517281765,0.028818226196164726,0.0005086824565951272,1.876557384368604,0.648383553074338,0.3455175730170898,-3.5467472379744063,2021-10-14 15:47:25,2021-10-14 15:47:25.514,1.298961213886905,0.6570738612265183,0.6592777181483498,0.9585408245368536,0.5595700075512976,0.159314354926685,0.5113839393786925,0.4477740324847955,0.7371322685804497,0.4502209586380556,0.8741762235063864,0.848625953980701,0.823868412372314,1.488891088073147,1.562498940774441,0.8407220492424766,0.4532986128210564,1.410263022747333,1.374650285501646,0.5894652283499452,724.0659340659341,752.2710622710623,807.0695970695973,767.5824175824176,723.2600732600732,-0.462341,-0.0047,0.896912,4.149628,-4.3141169999999995,0.224304,44.0,36.0,8.0
876.5837104072399,49.577373606848894,,,,,,,42.37627179369401,42.53313702013796,0.056557489054657926,0.04834252712043554,876.9230769230769,45.61846153846162,0.05202105263157904,63.46153846153846,23.529411764705877,70.58823529411767,12.363636363636365,171.875,,,0.0544184503869868,0.029623126133435745,0.0005294559579846925,1.8370259148835903,0.6434644202893111,0.35027509142683283,-3.519199934407196,2021-10-14 15:47:26,2021-10-14 15:47:26.514,0.7749039485614536,0.6570738612265183,0.08635365258880028,0.8764319970895337,0.2079199503057537,0.159314354926685,0.3720811765285335,0.1448085698639977,0.6523763158762721,0.4502209586380556,0.7381206156392448,0.4630726651203877,0.8363314089534083,1.488891088073147,1.5455037246705712,0.7613945722978198,0.4505185307881437,1.410263022747333,1.222002845823212,0.4830814149807126,837.6923076923077,756.3003663003664,806.6666666666667,796.5934065934067,1149.56043956044,-0.47381599999999996,0.010986,0.892151,4.28421,-4.598236,0.814972,43.0,34.0,9.0
877.1509971509973,49.47789528668458,,,,,,,42.40933412110178,42.56655821274511,0.0564075004729969,0.04834895503607485,876.9230769230769,45.61846153846162,0.05202105263157904,65.38461538461536,23.703703703703702,69.62962962962963,12.272727272727273,171.875,,,0.05461758782953903,0.030945589312270795,0.0005546846640738975,1.7649554926356381,0.6342190421848986,0.3593399634331903,-3.475524800111398,2021-10-14 15:47:27,2021-10-14 15:47:27.514,0.686810513890609,0.6570738612265183,0.1957481221075711,0.5395835650737059,-0.0319820843571829,0.159314354926685,0.2497051674950932,0.0940836413998652,1.0071562281897,0.4502209586380556,0.5103534084009617,0.8182390428622814,0.7680094020325524,1.488891088073147,1.191576083284753,0.8555695904100159,0.6429874765299679,1.410263022747333,1.2047830680769271,0.853335538883213,660.8058608058608,759.9267399267401,802.2344322344322,735.7509157509156,886.8498168498169,-0.470581,-0.010620000000000001,0.897644,3.18512,-5.248718,-2.1383669999999997,39.0,32.0,7.0
877.8347578347579,49.25526668636928,,,,,,,42.53409830569816,42.68712970422837,0.05610995263830852,0.04845342238510987,876.9230769230769,45.61846153846162,0.05202105263157904,65.38461538461536,23.703703703703702,70.37037037037038,12.272727272727273,171.875,,,0.05464448319688588,0.0319174282156591,0.0005691522858570085,1.712057839612422,0.6271527154314779,0.3663151448046017,-3.4446030793313063,2021-10-14 15:47:28,2021-10-14 15:47:28.514,0.7257161468598088,0.6570738612265183,0.3978166621248274,0.5141151016656836,-0.09098106863587516,0.159314354926685,0.3440313605104963,0.1099344798937893,0.9967400840720452,0.4502209586380556,0.7608618399930323,0.8071451562003913,0.7582373259162924,1.488891088073147,1.2952069443274759,0.8412548579167153,0.665215029969335,1.410263022747333,1.306979950438387,0.921017746119463,674.5054945054945,823.5897435897436,807.8754578754579,766.3736263736264,665.6410256410256,-0.48931899999999995,-0.013489,0.887756,4.403839,-5.091705,-0.687866,15.0,23.0,-8.0
878.8034188034187,49.151294442324314,,,,,,,42.362452818668544,42.51750766081068,0.05592979429830718,0.04820469733305019,876.9230769230769,45.61846153846162,0.05202105263157904,65.38461538461536,22.962962962962962,70.37037037037038,12.272727272727273,171.875,,,0.05448213777882355,0.03378637009127768,0.0005902658486168039,1.612547830134872,0.6131317763993285,0.3802254822717703,-3.387697809558357,2021-10-14 15:47:29,2021-10-14 15:47:29.528,0.4398994602097217,0.6570738612265183,0.5030320725939891,0.5870197564980226,0.2323753335000252,0.159314354926685,0.3128957434926559,0.1435149711797899,1.086084779219899,0.4502209586380556,0.838914877054846,1.0068643435839528,0.6476065856456332,1.488891088073147,1.323902118632948,0.686674786887836,0.8226176064668006,1.410263022747333,1.377735653512077,0.6798783121269667,891.6849816849817,743.809523809524,795.3846153846154,807.0695970695973,1058.901098901099,-0.491699,-0.021057,0.885498,4.388885,-5.203857,1.143951,14.000000000000002,22.0,-7.999999999999997
878.054298642534,49.653892269843425,,,,,,,43.236375623732435,43.392845257756356,0.05654991080461425,0.049241118334681096,876.9230769230769,45.61846153846162,0.05202105263157904,69.23076923076917,24.264705882352942,71.32352941176471,12.363636363636365,171.875,,,0.054177083685611055,0.0354665446661312,0.0006040754189229607,1.5275546066191077,0.6003153700540044,0.39299110320034003,-3.3391654306133414,2021-10-14 15:47:30,2021-10-14 15:47:30.514,0.4797158130640796,0.6570738612265183,0.1271644664173465,0.2753385213983963,0.2246317414573097,0.159314354926685,0.3504992822537319,0.1885681887575971,0.7501289853280129,0.4502209586380556,0.8928946273883988,0.9040516192389274,0.7970028665668625,1.488891088073147,1.341580091957327,0.7645233209149356,0.7113573141581585,1.410263022747333,1.220130552104047,0.6653909508574505,776.4468864468864,786.1172161172162,802.6373626373628,795.7875457875458,872.3443223443222,-0.4953,-0.029541,0.881653,3.858032,-5.099182,-0.358887,11.0,23.0,-12.0
877.5452488687782,50.09791112127058,,,,,,,43.25157917889624,43.41025456418512,0.05708869278917589,0.049287007404633314,876.9230769230769,45.61846153846162,0.05202105263157904,69.23076923076917,24.264705882352942,71.32352941176471,12.363636363636365,171.875,,,0.053637463593206335,0.03776906470950493,0.0006171093661468259,1.4201427545466323,0.5828661521316703,0.4104278603440433,-3.2762649053521717,2021-10-14 15:47:31,2021-10-14 15:47:31.514,0.4133686791234432,0.6570738612265183,0.2570968311609397,0.1113265755904982,0.2158550017256006,0.159314354926685,0.2394026554821243,0.2234199483790278,0.6255557630203831,0.4502209586380556,0.8547631400329948,0.7894513902026996,0.8701224097297543,1.488891088073147,1.4011347452692071,1.0515954640264709,0.5361846497417577,1.410263022747333,1.2201490453107,0.6237700302042731,692.2344322344322,795.3846153846154,811.5018315018315,784.1025641025641,686.5934065934066,-0.511414,-0.031067,0.872192,4.276733,-3.753357,0.72525,13.0,24.0,-11.0
877.5452488687782,50.09791112127058,,,,,,,43.5696283401308,43.73186200057319,0.05708869278917589,0.04964943790225669,876.9230769230769,45.61846153846162,0.05202105263157904,69.23076923076917,25.0,72.05882352941177,12.363636363636365,171.875,,,0.05309058064765092,0.039717384881668205,0.000623365322876917,1.3367088695750255,0.568231022328449,0.4250970688247953,-3.2259662808027416,2021-10-14 15:47:32,2021-10-14 15:47:32.521,0.1570845242598164,0.6570738612265183,0.2868068744424467,0.4233597529363383,0.1234594942688596,0.159314354926685,0.02810962452812498,0.3555743037285552,0.5518070599906473,0.4502209586380556,0.8189354301934532,0.6549182417266487,0.8671633080200948,1.488891088073147,1.401629333122146,0.9966268896017044,0.5351364542636474,1.410263022747333,1.128836153895515,0.5841898463233058,904.5787545787546,750.6593406593408,772.8205128205127,815.5311355311355,1258.754578754579,-0.524475,-0.029663,0.8588870000000001,4.11972,-4.179535,0.5159,26.0,27.0,-1.0
878.0056980056979,50.39071016820282,,,,,,,43.97356957492159,44.13763389673829,0.057392235930427624,0.05008346719708442,876.9230769230769,45.61846153846162,0.05202105263157904,69.23076923076917,25.925925925925927,72.5925925925926,12.272727272727273,171.875,,,0.05247897665732371,0.04171475499271216,0.0006265277868686063,1.2580435068237157,0.5534574253326568,0.4399350438444022,-3.1769003760071564,2021-10-14 15:47:33,2021-10-14 15:47:33.514,-0.0017653373183247282,0.6570738612265183,-0.04359087330550505,0.048389011931950436,0.1379721001344262,0.159314354926685,-0.1544308682064506,0.2917337596014149,0.5971069418874838,0.4502209586380556,0.8199227045388263,0.6301519146234112,0.7287687620046238,1.488891088073147,1.272593665067856,0.8184747666825121,0.6045088712027169,1.410263022747333,1.363847571632337,0.7488853801837625,869.5238095238095,778.0586080586081,820.7692307692308,788.9377289377289,906.5934065934067,-0.537842,-0.025939999999999998,0.862366,3.858032,-4.777679,0.7102970000000001,46.0,31.0,15.0
878.5185185185185,50.80901875039933,,,,,,,43.9735695749216,44.13221754384293,0.057834886435952026,0.05005423180956505,876.9230769230769,45.61846153846162,0.05202105263157904,69.23076923076917,25.925925925925927,72.5925925925926,12.272727272727273,171.875,,,0.05163528742969618,0.04415297858468679,0.0006255328255171763,1.16946328616671,0.5355591009896739,0.4579528979871955,-3.1200948890960176,2021-10-14 15:47:34,2021-10-14 15:47:34.525,0.4442062429739707,0.6570738612265183,-0.2026839491012356,0.3756423421886526,0.2040271058812314,0.159314354926685,0.1934312458703865,0.1899708146380001,0.7687640943610622,0.4502209586380556,0.3853212690316258,0.5085161705023756,0.8786087986750059,1.488891088073147,1.24324320698435,0.7616049136076943,0.6530915838802106,1.410263022747333,1.2303992915981108,0.6867343198652801,697.8754578754579,799.8168498168499,792.1611721611722,772.4175824175826,674.1025641025641,-0.535461,-0.023987,0.8605959999999999,4.3365480000000005,-5.570221,0.299072,59.0,31.0,28.0
879.0883190883193,50.96136496170325,,,,,,,43.97356957492159,44.13673121741419,0.05797069970688954,0.05002178805028997,876.9230769230769,57.02307692307691,0.06502631578947367,69.23076923076917,25.925925925925927,72.5925925925926,12.272727272727273,171.875,,,0.050881250652342135,0.04591519087341205,0.0006206079775147471,1.1081572282389394,0.5223033433242583,0.4713260266815135,-3.080959260821687,2021-10-14 15:47:35,2021-10-14 15:47:35.513,1.066612346128685,0.6570738612265183,0.6173236439507592,0.7736753384895358,0.5505677909058434,0.159314354926685,0.4767628243056528,0.5543051180971565,0.8782155750523541,0.4502209586380556,0.5558696496874322,0.4211049521288855,0.7613186872466966,1.488891088073147,1.2127520204808369,0.8022452667369006,0.7458052688184519,1.410263022747333,1.2611475045288072,0.6680294321246589,829.6336996336996,803.4432234432236,788.1318681318681,805.054945054945,1076.227106227106,-0.5448609999999999,-0.02478,0.85498,4.433746,-4.149628,1.1514280000000001,59.0,31.0,28.0
878.917378917379,51.00736485987825,,,,,,,44.428127555193946,44.59349766931729,0.05803431139649034,0.05054869618111208,876.9230769230769,57.02307692307691,0.06502631578947367,69.23076923076917,26.66666666666667,72.5925925925926,12.272727272727273,195.3125,,,0.049907449912233004,0.04722060196424347,0.0006109318966936822,1.0568999088580886,0.5106196932439648,0.4831296596436044,-3.0529249993280203,2021-10-14 15:47:36,2021-10-14 15:47:36.520,0.7813699846093762,0.6570738612265183,0.5510474271054391,0.3730233429062013,0.3335016028593712,0.159314354926685,0.3194170333494116,0.2727810834355846,0.4498546107088449,0.4502209586380556,0.8253885773930824,0.5101268764698473,0.8391870790198396,1.488891088073147,1.1667708178980731,0.7807011643613995,0.5050998751658817,1.410263022747333,1.02470459242482,0.6163274985469457,900.1465201465203,754.6886446886447,769.1941391941392,792.5641025641023,837.2893772893773,-0.5546260000000001,-0.0177,0.844299,4.254303,-3.865509,1.143951,54.0,27.0,27.0
878.2905982905985,51.26559246021103,,,,,,,44.428127555193946,44.59349766931729,0.05836973839864432,0.05058476959865407,876.9230769230769,57.02307692307691,0.06502631578947367,69.23076923076917,26.66666666666667,72.5925925925926,12.272727272727273,195.3125,,,0.04845723976650612,0.047671583707470835,0.0005948027753052682,1.0164805948939382,0.5009865908213477,0.4928639005387228,-3.0434197880082348,2021-10-14 15:47:37,2021-10-14 15:47:37.514,0.3931708414979543,0.6570738612265183,0.07625998738797701,0.4915030882700661,0.2726053540703092,0.159314354926685,-0.012574717166725109,0.06461944721414788,0.8488824333276869,0.4502209586380556,0.9805786449985164,0.7421432806793484,0.8645815146506519,1.488891088073147,1.088852292216249,0.8232644987163324,0.5208769237222524,1.410263022747333,1.0553134949810072,0.6576561593626228,868.7179487179487,801.4285714285713,821.1721611721613,779.6703296703297,774.8351648351648,-0.567688,-0.007445999999999999,0.840881,4.179535,-5.136566,1.40564,44.0,25.0,19.0
878.2805429864253,51.10123981748605,,,,,,,44.22364615008357,44.384668408654434,0.058183276659785774,0.05035252858922448,876.9230769230769,57.02307692307691,0.06502631578947367,69.23076923076917,25.735294117647058,72.79411764705883,12.363636363636365,195.3125,,,0.04696455408208018,0.04780682471942998,0.0005788343469588749,0.982381790836498,0.4925479716437766,0.5013814142710973,-3.0405868731192167,2021-10-14 15:47:38,2021-10-14 15:47:38.514,0.2776244966907566,0.6570738612265183,0.04489288814480802,0.6801691484594411,0.3933494563773268,0.159314354926685,0.029560061586745182,0.2089492280934973,0.7289209627234382,0.4502209586380556,0.8645921180932733,0.8285909203817818,0.7185453626263115,1.488891088073147,1.1372401578361409,0.8378740435564325,0.5517225973878054,1.410263022747333,1.021514907469033,0.7385034743412279,912.2344322344322,745.8241758241759,791.7582417582418,834.4688644688645,905.3846153846154,-0.5645140000000001,-0.000549,0.835327,3.947754,-6.116028,0.26168800000000003,36.0,24.0,12.0
878.7330316742082,50.74276521719175,,,,,,,44.23851040891464,44.40146783353879,0.057745371333673426,0.05034351596483077,876.9230769230769,51.32076923076927,0.05852368421052636,69.23076923076917,25.735294117647058,72.79411764705883,12.363636363636365,195.3125,,,0.04609003212063608,0.04757030896818313,0.0005713482189917167,0.968882336910254,0.4891139324700152,0.5048228395098929,-3.045546473537321,2021-10-14 15:47:39,2021-10-14 15:47:39.514,0.3625605201103198,0.6570738612265183,0.8703351355447637,0.7030608066616689,0.2152453097228968,0.159314354926685,0.5601974178736403,-0.03897081056532407,0.2607055017881742,0.4502209586380556,0.9521466422425279,0.5544531976418794,0.6631486164088024,1.488891088073147,1.2660633327371722,0.8299966798138546,0.6017009456314844,1.410263022747333,1.045106258589148,0.6450881751439561,782.0879120879123,777.2527472527472,795.3846153846154,788.1318681318681,778.8644688644687,-0.572571,-0.010254000000000001,0.835083,3.4841919999999997,-5.413208,0.463562,32.0,25.0,7.0
879.0313390313391,50.75974609269173,,,,,,,44.398300007316706,44.56474933839274,0.05774509262505605,0.05050821061310741,876.9230769230769,57.02307692307691,0.06502631578947367,69.23076923076917,25.925925925925927,73.33333333333333,12.272727272727273,195.3125,,,0.045444021146584,0.04688715561445561,0.0005707302266659673,0.9692211129261448,0.4891613382338638,0.5046952978119227,-3.0600115085340702,2021-10-14 15:47:40,2021-10-14 15:47:40.519,0.1681621721710548,0.6570738612265183,0.3981113928394864,0.07495404552813674,0.04777868129567747,0.159314354926685,0.2643752686867882,-0.1096748090743607,0.2086373582286644,0.4502209586380556,0.5677991438240401,0.3892579271999885,0.8533454238334509,1.488891088073147,1.2143482441496207,0.9649937158940832,0.5783122008086602,1.410263022747333,1.0419190212556542,0.7025455548038945,816.7399267399268,790.952380952381,804.6520146520148,791.7582417582418,716.007326007326,-0.5759890000000001,-0.0035399999999999997,0.8329469999999999,4.351501,-4.523468,1.0243229999999999,28.000000000000004,31.0,-2.9999999999999964
878.917378917379,50.851297159693225,,,,,,,44.21891220297461,44.38244363136742,0.057856743283800076,0.05031065861667452,876.9230769230769,57.02307692307691,0.06502631578947367,69.23076923076917,25.925925925925927,72.5925925925926,12.272727272727273,195.3125,,,0.045292505368658656,0.04607045292006494,0.0005779016788609652,0.9831139591191762,0.49262651431178006,0.5010879051632531,-3.0775834689546806,2021-10-14 15:47:41,2021-10-14 15:47:41.514,0.0831120006426353,0.6570738612265183,-0.1734344890762089,0.09830042936542838,0.2532770838280705,0.159314354926685,-0.08967891143094951,-0.01889471993945997,0.5744249116183732,0.4502209586380556,0.6255735689936149,0.5061876302516162,0.8273253463794509,1.488891088073147,1.134086942258027,0.8990117365013093,0.540809124840598,1.410263022747333,1.01393938999195,0.6627112691731084,732.5274725274727,782.4908424908424,782.8937728937732,791.7582417582418,1139.487179487179,-0.583679,0.001099,0.836182,4.4711300000000005,-4.919739,0.971985,29.0,30.0,-1.0000000000000036
878.6894586894588,50.85978721209774,,,,,,,44.25385011523945,44.418075143531674,0.057881412721115064,0.05036346991261606,876.9230769230769,57.02307692307691,0.06502631578947367,69.23076923076917,25.925925925925927,72.5925925925926,12.272727272727273,195.3125,,,0.045524496012638915,0.044776114134252885,0.0005971909242724322,1.016713863917314,0.5008316535291939,0.4925984303976451,-3.1060804483912148,2021-10-14 15:47:42,2021-10-14 15:47:42.529,0.9107306738735382,0.6570738612265183,0.4301291314674106,0.8007321719162445,0.7275328590059772,0.159314354926685,0.2759058761774848,0.6329228443338979,1.113216777775323,0.4502209586380556,0.7533823408310111,1.028029968495996,0.9514588940341462,1.488891088073147,1.36746791064908,0.9842527184930424,0.9483108613258048,1.410263022747333,1.2951231547001631,0.9496438244846139,686.5934065934066,818.3516483516484,761.1355311355313,796.1904761904763,663.6263736263736,-0.580566,-0.004822,0.8302,3.8804629999999998,-4.852448000000001,1.114044,28.000000000000004,27.0,1.0000000000000036
878.6894586894588,50.85978721209774,,,,,,,44.49268531106177,44.6596006408529,0.057881412721115064,0.05063527833533065,876.9230769230769,57.02307692307691,0.06502631578947367,69.23076923076917,26.66666666666667,73.33333333333333,12.272727272727273,195.3125,,,0.046053733028817684,0.043622112267001606,0.0006210672454426652,1.0557428477312754,0.5100255560540127,0.4830963876762464,-3.1321910951031806,2021-10-14 15:47:43,2021-10-14 15:47:43.514,0.9679489242779428,0.6570738612265183,0.4591624834623739,0.8046748892221941,0.8312207773342519,0.159314354926685,0.5744537517677271,0.8064738003127606,1.1265327714473439,0.4502209586380556,0.7331825479772082,1.028797599822791,0.9861338121698042,1.488891088073147,1.4686677105213262,1.0196629856868578,0.9539060596056632,1.410263022747333,1.423360775133786,0.948971459735654,725.6776556776558,793.7728937728937,825.6043956043958,772.4175824175826,712.3809523809523,-0.583801,-0.0014039999999999999,0.8254389999999999,4.0898129999999995,-6.340332,0.829926,26.0,16.0,10.0
878.3475783475784,50.71410207641736,,,,,,,44.49268531106177,44.655139818158474,0.05773807923717965,0.050654987168935066,876.9230769230769,57.02307692307691,0.06502631578947367,69.23076923076917,26.66666666666667,73.33333333333333,12.272727272727273,156.25,,,0.0468376446216005,0.042410030960206416,0.0006519370101103005,1.1044001515949975,0.5209994044602994,0.4717487621745264,-3.1603703654745314,2021-10-14 15:47:44,2021-10-14 15:47:44.514,0.2067597410125029,0.6570738612265183,0.2159878435642475,0.3184414355073324,0.4266993434742569,0.159314354926685,-0.03454033620005086,0.458267308763401,0.9548191551519764,0.4502209586380556,0.5387164633039098,0.6235485892584155,0.9271404277067162,1.488891088073147,1.3826610718767658,1.0610850881284593,0.8059386185065209,1.410263022747333,1.3623609149468567,0.8877416504148615,863.0769230769231,819.96336996337,799.0109890109891,828.021978021978,1183.003663003663,-0.586975,-0.004639,0.8198850000000001,4.28421,-4.9272160000000005,0.8374020000000001,22.0,11.0,11.0
877.7714932126697,50.06831006859794,,,,,,,44.451018580187,44.61290651526385,0.057040255300780426,0.05064076348332405,876.9230769230769,45.61846153846162,0.05202105263157904,69.23076923076917,26.470588235294123,73.52941176470588,12.363636363636365,171.875,,,0.048020292758230464,0.04084355563137913,0.0006979418627388656,1.175712839293982,0.5361694158069971,0.4560377312277782,-3.1980062270028347,2021-10-14 15:47:45,2021-10-14 15:47:45.514,0.9157487972849068,0.6570738612265183,0.3356425830189063,0.7393997843639181,0.7326851096131343,0.159314354926685,0.03005932048825535,0.5462154856134377,1.078121565003727,0.4502209586380556,0.4711336625824469,0.93479605934213,0.8928353114949767,1.488891088073147,1.361813869312559,0.9541326555663221,0.7906718975808408,1.410263022747333,1.22765145349926,0.9192838668027564,794.5787545787546,698.2783882783882,778.4615384615387,834.4688644688645,757.9120879120877,-0.5983890000000001,-0.0017699999999999999,0.817261,4.42627,-3.9402769999999996,0.5981449999999999,18.0,11.0,7.0
877.658371040724,49.85957643897705,,,,,,,44.52491072170013,44.689824745201044,0.05680977711162687,0.05073148299024671,876.9230769230769,45.61846153846162,0.05202105263157904,69.23076923076917,26.470588235294123,73.52941176470588,12.363636363636365,171.875,,,0.049030617717404086,0.03957991544668581,0.0007383436788804822,1.238775201110482,0.5487547180204049,0.4429816786197219,-3.229433475073622,2021-10-14 15:47:46,2021-10-14 15:47:46.514,1.114464974746629,0.6570738612265183,0.4729164995298443,0.9923543604370668,0.8617758168516461,0.159314354926685,0.186930876889696,0.724738585166688,0.9786220489473292,0.4502209586380556,0.2801536911126568,0.8940467294962299,0.9585746869420958,1.488891088073147,1.295707724543463,1.00325270174578,0.9366661577401344,1.410263022747333,1.16940263709941,1.099767001344423,714.7985347985347,772.4175824175826,790.1465201465203,807.0695970695973,682.967032967033,-0.673828,-0.000183,0.749146,4.269257,-4.022522,-0.822449,22.0,18.0,4.0
877.6018099547513,49.81201205116053,,,,,,,44.302864567628745,44.465512586254846,0.056759240336718086,0.050481737919288235,876.9230769230769,45.61846153846162,0.05202105263157904,69.23076923076917,25.735294117647058,73.52941176470588,12.363636363636365,242.1875,,,0.050026111291324886,0.03835028828884235,0.0007803935478576867,1.3044520269194304,0.5611026320730241,0.4301443215187558,-3.260993233887026,2021-10-14 15:47:47,2021-10-14 15:47:47.526,0.06884931065355687,0.6570738612265183,0.4729164995298443,0.1736659615357404,0.2583862565432097,0.159314354926685,0.186930876889696,0.3767519094603082,0.6742270237589343,0.4502209586380556,0.2801536911126568,0.9144768763731952,1.1757378765101951,1.488891088073147,1.295707724543463,1.1961756346225678,1.1348018233748212,1.410263022747333,1.16940263709941,1.110598892584231,756.7032967032968,754.6886446886447,760.3296703296703,816.7399267399268,772.4175824175826,-0.6838989999999999,-0.011597,0.742188,3.1552119999999997,-7.035675,-0.13458299999999998,27.0,26.0,1.0
878.0056980056979,49.702488204442695,,,,,,,44.74011623286079,44.906185810289095,0.0566083891224589,0.05095652150604887,876.9230769230769,45.61846153846162,0.05202105263157904,69.23076923076917,26.66666666666667,73.33333333333333,12.272727272727273,242.1875,,,0.05117352646177616,0.03692525035558188,0.0008323125920101068,1.385868097548062,0.5754289844152686,0.4152119421995084,-3.2988596704771336,2021-10-14 15:47:48,2021-10-14 15:47:48.524,1.0930909474701909,0.6570738612265183,0.4729164995298443,1.061940664316722,0.6701895975659744,0.159314354926685,0.186930876889696,0.5929403673912946,0.6932995389284875,0.4502209586380556,0.2801536911126568,0.8334523889152688,1.159152230022153,1.488891088073147,1.295707724543463,1.224865674701364,0.9532808835047372,1.410263022747333,1.16940263709941,1.005046809688795,837.2893772893773,794.1758241758242,790.952380952381,804.2490842490844,730.1098901098901,-0.692749,-0.013244999999999998,0.7341310000000001,4.673004,-5.383301,2.108459,33.0,34.0,-1.0
878.2905982905983,49.27153402201607,,,,,,,44.5819186414384,44.74916888106757,0.056099352672011285,0.0507598723340628,876.9230769230769,45.61846153846162,0.05202105263157904,69.23076923076917,26.66666666666667,72.5925925925926,12.272727272727273,242.1875,,,0.0518386469834092,0.035825539747944536,0.000869534617085422,1.4469746261501444,0.5855243199299124,0.4046541724700263,-3.3290942391442835,2021-10-14 15:47:49,2021-10-14 15:47:49.517,1.0375081533174721,0.6570738612265183,0.4729164995298443,0.9888418863692348,0.6038701392319432,0.159314354926685,0.186930876889696,0.4512929339554932,0.7386807972890299,0.4502209586380556,0.2801536911126568,0.9190593947072708,1.2823585921432912,1.488891088073147,1.295707724543463,1.318291963250757,1.048141194450834,1.410263022747333,1.16940263709941,1.146357998173854,731.3186813186812,755.0915750915751,743.809523809524,797.8021978021977,685.3846153846154,-0.694763,0.003357,0.7339479999999999,4.082336,-6.9683839999999995,-0.17944300000000002,37.0,42.0,-5.0
878.6324786324786,49.09915913688353,,,,,,,44.64625401845512,44.81378276472577,0.0558813387063752,0.05081334358131566,876.9230769230769,45.61846153846162,0.05202105263157904,69.23076923076917,27.407407407407412,72.5925925925926,11.25,156.25,,,0.05253294078826472,0.03499160034625744,0.000906292848107818,1.501301462877603,0.5940568286236393,0.3956945645579986,-3.352647236401888,2021-10-14 15:47:50,2021-10-14 15:47:50.516,0.3421007018402408,0.6570738612265183,0.4729164995298443,0.1279116360272421,0.3478930476446297,0.159314354926685,0.186930876889696,0.025488602556221318,0.6355885023944965,0.4502209586380556,0.2801536911126568,0.600737224300103,1.224460606890461,1.488891088073147,1.295707724543463,1.164681583813795,1.085318057764842,1.410263022747333,1.16940263709941,1.219277720995029,892.0879120879123,801.8315018315019,776.0439560439563,795.7875457875458,1060.512820512821,-0.693481,-0.0058590000000000005,0.733765,3.8804629999999998,-6.4151,-0.142059,35.0,47.0,-12.0
878.917378917379,49.20064882046597,,,,,,,44.591822433328076,44.75465893944193,0.055978696064776526,0.05073494221749807,876.9230769230769,45.61846153846162,0.05202105263157904,69.23076923076917,27.407407407407412,72.5925925925926,12.272727272727273,242.1875,,,0.05339306255372245,0.034313092024514644,0.0009504142227988832,1.5560551207561333,0.6022459844295095,0.38703383729546825,-3.3722283059591684,2021-10-14 15:47:51,2021-10-14 15:47:51.514,0.8636320650598622,0.6570738612265183,0.40845670767667097,0.7859624847615386,0.4750012730249518,0.159314354926685,-0.026057965422948186,0.3105835098833357,1.149104861480819,0.4502209586380556,0.8391693803236022,1.144268766606627,0.7897795303495984,1.488891088073147,1.391967738733345,0.8471578702795145,0.8462340465032042,1.410263022747333,1.2158062434325811,0.7817805765108857,888.8644688644687,719.2307692307692,821.978021978022,793.7728937728937,709.5604395604396,-0.68512,-0.014587000000000001,0.739441,3.6711120000000004,-6.452483999999999,0.657959,34.0,48.0,-14.0
879.5248868778281,48.886084925585536,,,,,,,44.43129325479585,44.59310609715826,0.05558237823050498,0.050517380369439896,876.9230769230769,45.61846153846162,0.05202105263157904,63.46153846153846,27.20588235294117,72.05882352941177,12.363636363636365,242.1875,,,0.05389778952697648,0.03410300247382722,0.0009755586078251916,1.5804411816332309,0.6057541038522825,0.3832816500176837,-3.378369849482917,2021-10-14 15:47:52,2021-10-14 15:47:52.514,0.7367631210930652,0.6570738612265183,0.29801569122494104,0.6134615284587209,0.3290172149609875,0.159314354926685,0.08940035465029597,0.3517584828987976,1.149104861480819,0.4502209586380556,0.8690165600548984,1.187246752446184,0.7022011403820961,1.488891088073147,1.276274052590633,0.7564959393109332,0.7602210724354489,1.410263022747333,1.236101922402019,0.5026763926271199,784.1025641025641,753.4798534798535,803.4432234432236,787.7289377289377,749.8534798534797,-0.688721,-0.015319999999999999,0.736633,3.872986,-5.607605,-0.224304,32.0,50.0,-18.0
880.3988603988605,48.82002988480546,,,,,,,43.96352650762722,44.12815484288925,0.055452172964748934,0.049935919371487766,884.6153846153845,45.61846153846162,0.05156869565217402,61.53846153846154,26.66666666666667,71.85185185185186,12.272727272727273,242.1875,,,0.054168312064976805,0.033745635583529436,0.001003998701820323,1.6051946015624985,0.6091943672603485,0.3795143384280995,-3.3889041860692113,2021-10-14 15:47:53,2021-10-14 15:47:53.515,0.4019365856798551,0.6570738612265183,1.096963918992967,0.1315073132759624,0.3397935500515581,0.159314354926685,0.2276842788542695,0.1823049454489624,0.7791778270374945,0.4502209586380556,0.9018957662546264,0.7966197373772494,0.7016922196300771,1.488891088073147,1.258971392164133,0.7303647767882719,0.6633195204769946,1.410263022747333,1.289560071070243,0.6916456972574571,817.948717948718,761.1355311355313,796.9963369963368,795.7875457875458,1057.289377289377,-0.692383,-0.018616,0.739563,4.104767,-5.52536,0.814972,32.0,50.0,-18.0
880.2849002849002,48.701294982886886,,,,,,,43.94845760349729,44.11336796752914,0.055324469347508884,0.049925265773925635,884.6153846153845,45.61846153846162,0.05156869565217402,61.53846153846154,26.66666666666667,71.85185185185186,12.272727272727273,242.1875,,,0.0541873289772772,0.033640359842445955,0.0010235155182267168,1.6107832743485095,0.6098660044175997,0.3786145623248191,-3.3920287470723554,2021-10-14 15:47:54,2021-10-14 15:47:54.514,1.2352300245261698,0.6570738612265183,1.1122461548971798,1.012197396239029,0.9397351660618736,0.159314354926685,-0.05172002960146014,0.6186388935322842,0.9645373473259222,0.4502209586380556,0.7804954016704118,0.8748383157234868,0.7549485570001389,1.488891088073147,1.3850186560334068,0.7548373332519897,0.6603124517528254,1.410263022747333,1.147912046524134,0.7371484444697647,906.5934065934067,757.1062271062273,794.1758241758242,790.5494505494507,725.6776556776558,-0.692322,-0.02301,0.731384,3.738403,-4.201965,1.420593,36.0,50.0,-14.0
879.8860398860401,48.5685330017079,,,,,,,43.94845760349729,44.113367967529136,0.055198663008675916,0.04994789735405887,876.9230769230769,45.61846153846162,0.05202105263157904,61.53846153846154,26.66666666666667,71.85185185185186,12.272727272727273,242.1875,,,0.054040974764970266,0.033749860937198436,0.0010327159177952179,1.601220664746721,0.6084081730506266,0.3799652268083011,-3.3887789820513925,2021-10-14 15:47:55,2021-10-14 15:47:55.514,0.8904013536724399,0.6570738612265183,0.1826043077294153,0.6286397273051768,0.6296807264812792,0.159314354926685,-0.1796740103711529,0.4216263418636009,0.6053109498343883,0.4502209586380556,0.6833298606946717,0.8123755366338284,0.8840840874909034,1.488891088073147,1.3646829307581299,0.994382818800458,0.6413843683835895,1.410263022747333,1.2023368343970342,0.6811932446371524,863.0769230769231,728.4981684981685,804.2490842490844,794.981684981685,804.2490842490844,-0.6984859999999999,-0.012268000000000001,0.727966,4.42627,-6.527252,0.8374020000000001,43.0,54.0,-11.0
879.7720797720799,48.61175069566025,,,,,,,43.84283025653447,44.007004764130755,0.05525493683347391,0.04983430511672149,876.9230769230769,45.61846153846162,0.05202105263157904,61.53846153846154,26.66666666666667,71.1111111111111,12.272727272727273,242.1875,,,0.05375203269339353,0.0340174982736344,0.0010364520496026503,1.5801289166244945,0.6052749022926468,0.38305412673900574,-3.3808802316486,2021-10-14 15:47:56,2021-10-14 15:47:56.514,0.1005226870172259,0.6570738612265183,0.2150069523473249,-0.0736292889037072,0.2200647566178509,0.159314354926685,-0.1402312362554448,0.07176278464715015,0.8177473907182774,0.4502209586380556,0.3731622073419774,0.8164511385504823,0.7679939538857729,1.488891088073147,1.2675594752475792,0.985537261184856,0.5018985210314245,1.410263022747333,1.2702009690711493,0.7097139166680211,763.5531135531136,731.3186813186812,787.3260073260074,784.9084249084249,1163.663003663004,-0.6938479999999999,-0.003906,0.723267,4.456176999999999,-5.114136,0.8374020000000001,47.0,52.0,-5.0
880.1709401709403,48.427235017764005,,,,,,,43.91830428426752,44.08069133840856,0.05502026118739938,0.049897471365889484,884.6153846153845,45.61846153846162,0.05156869565217402,61.53846153846154,26.66666666666667,71.85185185185186,12.272727272727273,242.1875,,,0.05322018583907207,0.03456116593327345,0.0010334725634161756,1.5398839825549642,0.5992263818242188,0.3891373561987358,-3.3650245991201633,2021-10-14 15:47:57,2021-10-14 15:47:57.519,0.5630694179075395,0.6570738612265183,0.8316915646216793,0.7503487959780151,0.5017381628136898,0.159314354926685,0.3782049647250613,0.5274319615069901,0.9633075185714004,0.4502209586380556,0.6258133468801612,0.8604752851788342,0.6838517795508963,1.488891088073147,1.1626651187694819,0.8051310881149231,0.2640675635597752,1.410263022747333,1.049727416303933,0.5866608396039208,877.5824175824176,730.9157509157509,817.5457875457878,808.6813186813188,690.6227106227108,-0.69281,-0.005797999999999999,0.740173,3.887939,-5.846863,0.478516,44.0,50.0,-6.0
881.082621082621,48.50282500381467,,,,,,,43.91830428426752,44.08069133840856,0.05504912234475506,0.04984584105211764,884.6153846153845,45.61846153846162,0.05156869565217402,61.53846153846154,26.66666666666667,71.85185185185186,12.272727272727273,242.1875,,,0.052656642592785984,0.035135049427297164,0.0010253343959759325,1.4986927142864903,0.5928665337895741,0.3955891211974235,-3.348556087556636,2021-10-14 15:47:58,2021-10-14 15:47:58.514,0.7436179538026366,0.1441550769772016,0.6904409409977531,0.843476560142479,0.3819623014670173,-0.1906796144576661,0.1850719600351519,0.4599100894919261,0.6975944600350987,0.847743881788702,0.6278416984772852,0.6263517660714714,0.7769516520360747,1.4441243164223132,0.9235170375192324,0.804325527640054,0.35109247907475605,1.3723910734538072,0.8640333400146171,0.507636874034584,785.7142857142858,767.1794871794873,805.4578754578755,776.0439560439563,1183.003663003663,-0.678833,-0.01123,0.748291,4.187012,-5.196381,-0.037384,40.0,51.0,-11.0
881.3105413105412,48.59176224130013,,,,,,,43.590306382985794,43.752924296529606,0.05513580056473895,0.049460779531997186,884.6153846153845,45.61846153846162,0.05156869565217402,61.53846153846154,25.925925925925927,71.85185185185186,12.272727272727273,242.1875,,,0.051980747940315736,0.035796312261878294,0.00101222014030163,1.4521257821206697,0.5854394555266724,0.4031602928168541,-3.32991040032606,2021-10-14 15:47:59,2021-10-14 15:47:59.514,0.3663386424236021,-0.06494191685791699,0.1896407838609558,0.5039795067556919,0.3098856105930695,0.09361802803400532,0.0787274687559979,0.4120372539447971,0.577501909391317,0.8117215690739471,0.4863731200163268,0.6890052438634964,0.6431210084504857,1.4475389062319952,0.8360584740820273,0.6063130090975067,0.3069820918524768,1.266523825462876,0.7022942242165287,0.4599740650429465,699.0842490842491,773.6263736263736,802.2344322344322,784.9084249084249,948.0952380952381,-0.682495,-0.009155,0.744751,4.306641,-5.084229,0.904694,36.0,49.0,-13.0
