HRV_MeanNN,HRV_SDNN,HRV_SDANN1,HRV_SDNNI1,HRV_SDANN2,HRV_SDNNI2,HRV_SDANN5,HRV_SDNNI5,HRV_RMSSD,HRV_SDSD,HRV_CVNN,HRV_CVSD,HRV_MedianNN,HRV_MadNN,HRV_MCVNN,HRV_IQRNN,HRV_pNN50,HRV_pNN20,HRV_HTI,HRV_TINN,HRV_ULF,HRV_VLF,HRV_LF,HRV_HF,HRV_VHF,HRV_LFHF,HRV_LFn,HRV_HFn,HRV_LnHF,Time,TimeStamp,Delta_TP9,Delta_AF7,Delta_AF8,Delta_TP10,Theta_TP9,Theta_AF7,Theta_AF8,Theta_TP10,Alpha_TP9,Alpha_AF7,Alpha_AF8,Alpha_TP10,Beta_TP9,Beta_AF7,Beta_AF8,Beta_TP10,Gamma_TP9,Gamma_AF7,Gamma_AF8,Gamma_TP10,RAW_TP9,RAW_AF7,RAW_AF8,RAW_TP10,AUX_RIGHT,Accelerometer_X,Accelerometer_Y,Accelerometer_Z,Gyro_X,Gyro_Y,Gyro_Z,Attention,Meditation,A_M
837.2156013001082,38.756504764794,,,,,,,33.56751845690115,33.687144643050146,0.046292143510714805,0.040094234274629256,838.4615384615386,45.61846153846145,0.0544073394495412,59.615384615384635,16.19718309859155,60.56338028169014,9.466666666666667,171.875,,,0.03876210009247676,0.026959843907031,0.0024285215271167768,1.4377716809542729,0.5687723450301811,0.3955929530150974,-3.6134067827533456,2021-10-14 16:42:40,2021-10-14 16:42:40.759,1.0635035501369259,1.177291717544608,0.7525597594460255,1.330805237113794,0.7573506951808541,0.5644618750513342,0.6019280291833938,0.8956942481271793,1.030812565362022,0.6445365975283319,0.7672968611303436,0.9637813086291052,1.0339630143774359,0.8723347345362206,1.2820499222424209,1.136567651031392,0.7043097363108872,0.5769933954616191,1.060693671781009,0.8863994623720215,730.9157509157509,782.8937728937732,782.4908424908424,733.7362637362637,1082.271062271062,-0.19781500000000002,0.042175,0.990295,3.3496089999999996,-5.622559,1.9514470000000002,50.0,55.00000000000001,-5.000000000000006
837.4864572047671,39.007141095812884,,,,,,,33.692305201194635,33.81237642606542,0.04657644402514267,0.040230268694311316,838.4615384615386,45.61846153846145,0.0544073394495412,61.53846153846154,16.19718309859155,60.56338028169014,9.466666666666667,171.875,,,0.0360707181773463,0.026145260196310874,0.0023704986094267144,1.3796274317604962,0.5584871611249788,0.4048101308135864,-3.644087359342956,2021-10-14 16:42:41,2021-10-14 16:42:41.757,1.0600483398444631,1.177291717544608,0.7182207337524924,1.1426482977655228,0.5948861559133002,0.5644618750513342,0.4384859989870988,0.7853742570145369,0.791734641595879,0.6445365975283319,0.8220180765146325,0.7944413039224577,0.9842986811997768,0.8723347345362206,1.201708132970958,1.127395664941209,0.775070303818288,0.5769933954616191,1.0038688602104058,0.8509008298136134,822.3809523809523,796.1904761904763,815.1282051282053,822.7838827838829,676.5201465201467,-0.010437,0.052673000000000005,1.0113530000000002,3.798218,-4.777679,0.971985,54.0,54.0,0.0
837.4864572047671,39.007141095812884,,,,,,,33.64244604668376,33.76198431732699,0.04657644402514267,0.04017073441279315,838.4615384615386,45.61846153846145,0.0544073394495412,61.53846153846154,16.19718309859155,59.859154929577464,9.466666666666667,171.875,,,0.03473845179912595,0.025829545876004854,0.0023842474212581693,1.3449114423415898,0.5518222860191303,0.4103038078539708,-3.6562362532908494,2021-10-14 16:42:42,2021-10-14 16:42:42.757,1.059535869259274,1.177291717544608,0.6710867109614079,0.9060690442134,0.4724618543539068,0.5644618750513342,0.07076455253557355,0.1671298549895885,0.794885796371668,0.6445365975283319,0.7312591799413076,0.649988411530445,0.9455571288335716,0.8723347345362206,1.074438964489086,1.077185437030322,0.9918185412895928,0.5769933954616191,0.9204610245299596,0.7870984437402679,728.4981684981685,767.5824175824176,789.3406593406594,799.8168498168499,791.7582417582418,-0.097595,0.035278,1.010559,4.456176999999999,-2.467346,-4.553375,57.99999999999999,50.0,7.999999999999992
837.1614301191768,38.608250797697494,,,,,,,33.542505399435946,33.66204237901423,0.04611804773686395,0.04006695028300683,838.4615384615386,45.61846153846145,0.0544073394495412,59.615384615384635,16.19718309859155,59.859154929577464,9.466666666666667,171.875,,,0.035260249674924166,0.02683478759445313,0.0025661825438129376,1.3139753594402444,0.5453075239964996,0.4150058980016196,-3.6180561886277065,2021-10-14 16:42:43,2021-10-14 16:42:43.757,0.8289124830213299,1.177291717544608,0.6710867109614079,0.9138122375257124,0.3107846236737675,0.5644618750513342,0.07076455253557355,0.6758426566904353,1.099849275736837,0.6445365975283319,0.7312591799413076,0.9495382898516684,1.0945176184716239,0.8723347345362206,1.074438964489086,1.0651648461081291,0.9154485098543579,0.5769933954616191,0.9204610245299596,0.9938006569171032,726.4835164835165,786.5201465201468,786.1172161172162,776.8498168498169,1017.8021978021981,-0.141785,0.030273,1.0023799999999998,4.015045,-3.790741,-0.8747860000000001,56.99999999999999,45.0,11.999999999999993
837.2156013001082,38.65892963610164,,,,,,,33.542505399435946,33.66168618388722,0.046175596317207135,0.040064357791885316,838.4615384615386,45.61846153846145,0.0544073394495412,59.615384615384635,16.19718309859155,59.859154929577464,10.142857142857142,179.6875,,,0.03573403392957825,0.027555609669246996,0.002730875345621604,1.296797071757721,0.5412564836039345,0.4173794770143163,-3.5915491463519844,2021-10-14 16:42:44,2021-10-14 16:42:44.764,1.044840675103431,1.177291717544608,0.4528044286746937,0.7716298475063548,0.3280464890996464,0.5644618750513342,0.3607816296225562,0.5474397494332248,1.094573577655781,0.6445365975283319,0.8582999245289478,0.7871410292556584,1.3009909944806308,0.8723347345362206,1.6219656386241001,1.1169153748715248,0.9101062663467356,0.5769933954616191,1.4280410764096507,0.9506662439708552,778.4615384615387,804.2490842490844,795.3846153846154,753.8827838827838,792.1611721611722,-0.151978,0.023804,1.0062870000000002,3.9851379999999996,-5.286102,0.9196469999999999,49.0,39.0,10.0
837.5406283856987,38.99232646075298,,,,,,,33.57376880952154,33.69275003988995,0.04655574325499645,0.040086137521749415,838.4615384615386,45.61846153846145,0.0544073394495412,61.53846153846154,16.19718309859155,60.56338028169014,10.142857142857142,179.6875,,,0.0362335933182185,0.02820703177727764,0.002907539564840851,1.2845588860365915,0.5380041683534899,0.4188240603071617,-3.56818397831739,2021-10-14 16:42:45,2021-10-14 16:42:45.764,1.127957302210532,1.177291717544608,0.7920778809616824,2.014318258177397,0.4083168480452804,0.5644618750513342,0.390949288391181,0.6760030524125634,1.088333067863359,0.6445365975283319,0.9706091610296964,0.8331872451415947,1.301074958802013,0.8723347345362206,1.381421106702506,0.9484434865037454,0.8167874322234359,0.5769933954616191,1.4342786297760812,0.7492946430899382,726.8864468864467,809.4871794871796,784.1025641025641,821.5750915750915,669.6703296703297,-0.14093,0.026062000000000002,1.000977,4.067383,-5.121613,-1.345825,40.0,36.0,4.0
837.9739978331528,38.978681408878266,,,,,,,32.6164036526721,32.70845255486017,0.04651538294704847,0.03892293046921759,842.3076923076924,39.91615384615382,0.04738904109589037,61.53846153846154,15.492957746478872,60.56338028169014,10.923076923076923,179.6875,,,0.039646567410257065,0.031106358935737925,0.003376005410404527,1.2745486378576871,0.5348325744196953,0.419625080231276,-3.4703430133104844,2021-10-14 16:42:46,2021-10-14 16:42:46.756,1.1100102835049228,1.177291717544608,0.8652217317884116,2.1713626644153647,0.3729454086964114,0.5644618750513342,0.3925838015010956,0.6407662016238066,1.0543922789906541,0.6445365975283319,0.932236735120998,1.028454906629457,1.1308685530699658,0.8723347345362206,1.220727471035636,0.9344053222084464,0.8225073520544528,0.5769933954616191,1.0576282540868691,0.9423576406753328,765.1648351648352,730.5128205128206,757.5091575091576,836.8864468864467,1120.1465201465198,-0.142517,0.035522000000000005,0.998291,4.104767,-5.413208,1.786957,29.0,30.0,-1.0000000000000036
839.3282773564464,37.74119313980206,,,,,,,32.481025170046465,32.57842556940572,0.04496594974575617,0.03869883339609253,846.1538461538463,34.21384615384618,0.04043454545454548,61.53846153846154,15.492957746478872,59.859154929577464,10.923076923076923,140.625,,,0.03903469982626924,0.030780263900273788,0.0034747985796161978,1.2681730069871828,0.5326078103952151,0.4199804028793668,-3.480881576850076,2021-10-14 16:42:47,2021-10-14 16:42:47.757,0.5960138284101769,0.1724855227359711,0.230346173500158,1.6761349170966595,0.4407941751768758,0.3432212998916032,-0.04133832736100403,0.8496637717733291,1.024932028832056,0.8032398856648263,0.6336820780013175,0.9967918984128564,0.9020313337388756,1.492078061879779,1.067417673392677,0.8733221151271391,0.7822477444246144,1.279038047328819,0.6842580575297099,0.9462210509062514,807.8754578754579,801.025641025641,782.0879120879123,793.7728937728937,780.8791208791209,-0.132996,0.034241,1.002625,4.269257,-4.329071,1.2486270000000002,24.0,32.0,-8.0
839.9241603466955,36.918679254745385,,,,,,,32.840794333604734,32.956237028954746,0.043954777106907435,0.03909971385993831,846.1538461538463,34.21384615384618,0.04043454545454548,59.615384615384635,16.19718309859155,59.859154929577464,10.923076923076923,132.8125,,,0.03790001470344466,0.030011572043267844,0.003513546496758145,1.26284669955989,0.5306257473017637,0.42018223390589704,-3.50617223692092,2021-10-14 16:42:48,2021-10-14 16:42:48.763,0.5225832823108056,0.3940711202204402,0.5081507035874807,1.364338952357651,0.6669291137872928,0.3188055770570163,0.07536520608479204,0.3285241800794637,0.8418129044236788,0.9127907835962792,0.6473608376151023,0.8609566246317447,0.6934867577300139,1.367143158993392,0.9566592919675304,0.9056153986536222,0.8009854428653189,1.003319618249338,0.669424592564698,0.8589523518273033,741.7948717948718,787.7289377289377,790.5494505494507,788.5347985347986,801.4285714285713,-0.138916,0.032898000000000004,1.0047,4.201965,-5.562744,0.747681,23.0,31.0,-8.0
840.6283856988083,36.809771107250135,,,,,,,33.09537794457438,33.208852536463915,0.043788398932841685,0.039369807762394834,846.1538461538463,34.21384615384618,0.04043454545454548,53.846153846153925,16.901408450704224,59.859154929577464,10.923076923076923,132.8125,,,0.03765374907542909,0.029944759591270013,0.0036178402575472147,1.2574403531496885,0.5287233850682493,0.4204759166062081,-3.5084009416409003,2021-10-14 16:42:49,2021-10-14 16:42:49.757,0.07523486509992967,0.4465742502459445,0.04639580047604161,0.4044651079481683,0.3506639042874245,0.4998445162389117,-0.3133199445422643,0.003280033236490475,0.8167566779684162,0.9371120244677288,0.6263363824172014,0.6873121473477514,0.9343759040541704,1.3092909361464955,0.9927675474294568,0.8497436725489225,0.768645908608745,1.045524117503986,0.7453344140459269,0.8379306069261488,753.8827838827838,798.2051282051282,790.5494505494507,786.5201465201468,1093.956043956044,-0.130859,0.031127999999999996,1.005371,4.269257,-5.263672,1.233673,24.0,32.0,-8.0
841.7894162575012,37.631763041819845,,,,,,,33.117787177845344,33.23299704411141,0.04470448584293957,0.039342128254692486,846.1538461538463,34.21384615384618,0.04043454545454548,53.846153846153925,17.02127659574468,60.28368794326241,10.846153846153848,132.8125,,,0.036587290752949,0.029283000530880836,0.0036515795106215453,1.2494379021837363,0.526270227409776,0.4212055889212053,-3.5307481179918807,2021-10-14 16:42:50,2021-10-14 16:42:50.757,1.050381031453991,0.6785801929808245,0.6998088484007028,0.6925842875744408,0.3318664863201373,0.6409622206748755,0.2666444266714836,0.4238427769678537,0.9149767714975582,1.0225891330031192,1.056563010885867,0.7271127329493084,0.9247553213922018,1.1858207731628239,1.093910597102785,0.8287762724030387,0.642660124169968,1.0220668833112099,0.8106746652409414,0.7153209993696686,880.0,778.8644688644687,786.9230769230769,848.5714285714287,746.6300366300368,-0.12085,0.032593000000000004,1.003662,4.329071,-5.181426999999999,-0.299072,27.0,34.0,-7.0
841.89852700491,37.73405998705172,,,,,,,33.327697466637645,33.44718460507253,0.04482019955693742,0.03958635916041135,846.1538461538463,34.21384615384618,0.04043454545454548,53.846153846153925,17.730496453900713,60.28368794326241,11.75,171.875,,,0.036662003280818936,0.029515427983953436,0.0037444485977033842,1.242130159886242,0.5243280551513597,0.4221200580133883,-3.5228421698371566,2021-10-14 16:42:51,2021-10-14 16:42:51.757,1.402884376100665,0.6338304075985253,1.0596915111412109,1.029700568855186,0.5723312396225877,0.7576342306338082,0.9471591275385941,0.7805006275101759,0.7324649533593706,0.9001282663052066,1.4616377025342655,0.6062139720885672,0.8260900270107827,1.1484095505579952,1.232593849204595,0.7029874492276638,0.6454905126750938,0.9263952921822972,0.8735682129211492,0.6684274982858125,787.3260073260074,801.8315018315019,788.9377289377289,774.0293040293042,763.5531135531136,-0.140747,0.025695999999999997,1.001587,3.738403,-3.887939,2.7215580000000004,29.0,30.0,-1.0000000000000036
841.734860883797,37.52974635988121,,,,,,,33.23244806504034,33.351729427952684,0.04458618515630453,0.03948089785677552,846.1538461538463,34.21384615384618,0.04043454545454548,53.846153846153925,17.730496453900713,59.57446808510638,11.75,171.875,,,0.03837107020104446,0.03112381468437993,0.0039944221937133935,1.2328524183220284,0.5221313375526067,0.4235148747676163,-3.4697820073519803,2021-10-14 16:42:52,2021-10-14 16:42:52.757,1.4341463770066931,0.6721830407075957,0.7655876880398057,1.1827392293700931,1.260524942415638,0.8249134043662213,0.7065580915152121,1.102637113816344,1.3481301831459094,0.8820344879152875,1.37982804118425,1.183026737428436,1.075132312752984,1.196419008743863,1.136017874121188,1.0118143052969142,0.8211137079922379,0.9271244967194572,0.9548164035986496,0.8859325020122025,724.4688644688645,871.5384615384613,813.5164835164835,792.9670329670329,696.2637362637363,-0.17395,0.026062000000000002,0.99408,3.3496089999999996,-3.74588,5.069275,19.0,29.0,-9.999999999999996
841.8201516793068,37.67849696025926,,,,,,,33.7980116874364,33.916913302473176,0.04475836897595791,0.04014873203024941,846.1538461538463,34.21384615384618,0.04043454545454548,53.846153846153925,18.30985915492958,60.56338028169014,11.833333333333336,171.875,,,0.0389831974213385,0.031798739490453136,0.0040856271385233565,1.2259353058017388,0.5206954161770204,0.4247331924554496,-3.4483286286466335,2021-10-14 16:42:53,2021-10-14 16:42:53.756,1.291550645531734,0.6721830407075957,0.26086181423452304,1.306724188952991,1.159041669683093,0.8249134043662213,-0.1910107470105107,1.106962272889927,1.165305414340246,0.8820344879152875,0.7435677689846639,1.053124392199646,1.23629744595625,1.196419008743863,1.15428840498142,1.1366536807289758,0.7997002895372006,0.9271244967194572,1.078488786912702,1.040768546404745,723.2600732600732,770.4029304029305,818.7545787545787,842.5274725274727,657.1794871794872,-0.21411100000000002,0.025024,0.9877319999999999,3.790741,-1.667328,2.631836,20.0,22.0,-2.0
841.6576381365112,37.60913541689565,,,,,,,33.829038969916056,33.94853829459503,0.04468460061761561,0.0401933487407254,846.1538461538463,34.21384615384618,0.04043454545454548,53.846153846153925,18.30985915492958,61.26760563380282,10.923076923076923,148.4375,,,0.04026807299872608,0.033011210446597376,0.004216308342646767,1.2198302471782492,0.5196175946226784,0.4259753320797502,-3.4109080647012537,2021-10-14 16:42:54,2021-10-14 16:42:54.757,0.6496525598146863,0.6721830407075957,0.26086181423452304,1.108552255622969,0.4914220097538867,0.8249134043662213,-0.1910107470105107,0.4181367884393353,0.978570498536311,0.8820344879152875,0.7435677689846639,0.9034199556064614,1.3103768325015341,1.196419008743863,1.15428840498142,1.3624044538833868,1.078953912548122,0.9271244967194572,1.078488786912702,1.33082327792672,771.6117216117218,681.7582417582418,801.8315018315019,835.6776556776558,754.6886446886447,-0.27929699999999996,0.025391,0.977356,2.452393,-1.031799,2.452393,22.0,20.0,2.0
841.352973267867,37.566947927378365,,,,,,,33.69346176958663,33.81282542512066,0.04465063905517089,0.040046761395183685,846.1538461538463,34.21384615384618,0.04043454545454548,53.846153846153925,18.439716312056735,60.28368794326241,10.846153846153848,148.4375,,,0.04216355111599876,0.03472043390841112,0.004358059249344012,1.2143728165155367,0.5189868311772671,0.4273702639906111,-3.360426891906008,2021-10-14 16:42:55,2021-10-14 16:42:55.766,1.1572747597065678,0.6721830407075957,0.26086181423452304,1.22744794287802,0.8382794967383996,0.8249134043662213,-0.1910107470105107,0.7418805186811311,1.279061904021579,0.8820344879152875,0.7435677689846639,1.3390599929711609,1.2801192950124658,1.196419008743863,1.15428840498142,1.272721480448852,0.9745021547614094,0.9271244967194572,1.078488786912702,1.199104944155553,800.6227106227108,823.5897435897436,797.8021978021977,874.3589743589743,1036.336996336996,-0.315735,0.032288,0.9579469999999999,7.701111,-6.8038940000000006,-6.639403999999999,28.000000000000004,19.0,9.000000000000004
841.8439716312057,37.67737755802872,,,,,,,33.74360087733763,33.861889844134424,0.04475577283641153,0.04008296313146256,846.1538461538463,34.21384615384618,0.04043454545454548,53.846153846153925,18.439716312056735,60.99290780141844,10.846153846153848,148.4375,,,0.04248229895161812,0.03502669182665768,0.004306687478436265,1.2128550181632116,0.5192439866882472,0.4281171112064225,-3.3516448845235627,2021-10-14 16:42:56,2021-10-14 16:42:56.759,1.288464850768834,0.6721830407075957,0.26086181423452304,1.562158803381816,0.9160335039799942,0.8249134043662213,-0.1910107470105107,1.0307053801180879,1.149302164678734,0.8820344879152875,0.7435677689846639,1.31574726574912,1.226317637706917,1.196419008743863,1.15428840498142,1.1819069873897619,0.8128224863012884,0.9271244967194572,1.078488786912702,0.769937352271543,836.0805860805863,797.8021978021977,791.7582417582418,810.2930402930403,728.0952380952382,-0.331177,0.04303,0.9534299999999999,3.8356019999999997,-6.9609070000000015,0.657959,38.0,23.0,15.0
842.2258592471359,37.758598593882695,,,,,,,33.72480744737672,33.844779293486496,0.04483191554773091,0.040042474446846436,846.1538461538463,34.21384615384618,0.04043454545454548,53.846153846153925,18.439716312056735,60.99290780141844,10.846153846153848,148.4375,,,0.04250949102241385,0.035005208190095095,0.004190998847288102,1.2143761805833833,0.5202757216675744,0.4284304402426893,-3.352258423131865,2021-10-14 16:42:57,2021-10-14 16:42:57.757,1.178712417165018,0.6721830407075957,0.26086181423452304,1.5629920407856293,0.9836307815021824,0.8249134043662213,-0.1910107470105107,1.077497521962798,0.9954064024513882,0.8820344879152875,0.7435677689846639,1.3108433277023568,1.135672676145834,1.196419008743863,1.15428840498142,1.1480977697892027,0.7984351135244483,0.9271244967194572,1.078488786912702,0.7831282849227611,811.9047619047618,785.7142857142858,778.8644688644687,846.959706959707,773.2234432234433,-0.318176,0.045715,0.957825,4.493561,-8.553467,-0.643005,48.0,29.0,19.000000000000004
842.2804146208402,37.75867798096184,,,,,,,33.81867016005742,33.940102041458985,0.044829105990739714,0.040151319647247385,846.1538461538463,34.21384615384618,0.04043454545454548,53.846153846153925,18.439716312056735,61.70212765957447,10.071428571428571,148.4375,,,0.042564549143694334,0.034869759595707886,0.004008136274095481,1.2206722855907959,0.5226334884302649,0.4281521704060925,-3.3561353126198084,2021-10-14 16:42:58,2021-10-14 16:42:58.757,0.8184661642228761,0.6721830407075957,0.4609495021788242,1.094444154147782,0.5645752016084079,0.8249134043662213,0.2764847616878654,0.435609344294709,0.9505756229068424,0.8820344879152875,1.03835432611463,0.8413970650294197,0.9712182900774472,1.196419008743863,1.2663283614210772,1.1409304963652542,0.8779434210795909,0.9271244967194572,1.3573198974606508,0.7695772899761845,811.098901098901,760.3296703296703,779.2673992673992,811.9047619047618,1007.728937728938,-0.313477,0.038818,0.960693,4.486084,-5.787048,0.082245,59.0,36.0,23.0
842.4160346695559,37.64809096347345,,,,,,,33.648682481262625,33.76846497921204,0.04469061534214648,0.03994306980927966,846.1538461538463,34.21384615384618,0.04043454545454548,53.846153846153925,18.30985915492958,60.56338028169014,10.923076923076923,148.4375,,,0.04058060160794035,0.033071647933409117,0.00369785509894017,1.2270510888858868,0.5246353808654446,0.4275578951987994,-3.4090789215575064,2021-10-14 16:42:59,2021-10-14 16:42:59.757,0.7753204441045382,0.6721830407075957,0.3002175354855254,0.8348118392598932,0.4030764178954183,0.8249134043662213,0.08523603732466786,0.3404060552232832,1.0465246740381828,0.8820344879152875,1.0428817691072558,0.9639545896884,0.9963720545285734,1.196419008743863,1.233916145778011,1.09284592509173,0.8011362371651327,0.9271244967194572,1.2825158746598608,0.8105046373764074,814.7252747252749,781.6849816849817,782.0879120879123,794.1758241758242,802.6373626373628,-0.312988,0.034241,0.9619139999999999,3.6636349999999998,-6.452483999999999,-2.930908,68.0,47.0,21.0
842.4160346695559,37.64809096347345,,,,,,,33.673616669553624,33.79366559459813,0.04469061534214648,0.03997266823483762,846.1538461538463,34.21384615384618,0.04043454545454548,53.846153846153925,18.30985915492958,60.56338028169014,10.923076923076923,148.4375,,,0.038309919997814516,0.030845146848595344,0.0032816909257010088,1.2420080275791952,0.5288740299274459,0.4258217484779687,-3.4787758554761266,2021-10-14 16:43:00,2021-10-14 16:43:00.762,0.7679289720746099,0.6721830407075957,0.4032407595911125,0.4750915964209493,0.4121711037326527,0.8249134043662213,0.073898637744309,0.1733362337546863,1.095573207430367,0.8820344879152875,0.8362656626280026,0.7830176573945393,1.067214665426876,1.196419008743863,1.195601465026158,0.9199931167578634,0.8364436219455126,0.9271244967194572,0.9172547795465396,0.7611099565327863,720.4395604395604,804.6520146520148,795.7875457875458,785.7142857142858,761.9413919413921,-0.286377,0.041565,0.9713129999999999,3.8056949999999996,-5.069275,4.216919,70.0,56.00000000000001,13.999999999999993
842.1167484997274,37.72460558681899,,,,,,,33.58666764430282,33.70613885616076,0.04479735815019384,0.03988362386110849,846.1538461538463,34.21384615384618,0.04043454545454548,53.846153846153925,17.730496453900713,60.28368794326241,10.846153846153848,148.4375,,,0.037515354699445086,0.02971452732573392,0.003001666123935077,1.26252570967048,0.5341667055351437,0.4230937250969419,-3.516119217214684,2021-10-14 16:43:01,2021-10-14 16:43:01.757,0.775439180418737,0.6721830407075957,0.4834187864271596,0.7386703215235297,0.3844118354061073,0.8249134043662213,0.1758185717669283,0.2854933794440804,1.153797919813339,0.8820344879152875,0.7189205759218764,0.7199747393880734,0.958807992279632,1.196419008743863,1.141571947435941,1.02031852305039,0.8611479523690392,0.9271244967194572,0.8540649891977266,0.5528408815955894,799.8168498168499,805.4578754578755,807.0695970695973,848.5714285714287,1026.263736263736,-0.276062,0.039368,0.9728389999999999,4.0000919999999995,-7.873077,0.53833,67.0,62.0,5.0
842.4440807419531,37.488829972128336,,,,,,,33.43531876620085,33.54989139708581,0.04450008116753739,0.03968847254141054,846.1538461538463,34.21384615384618,0.04043454545454548,53.846153846153925,17.730496453900713,59.57446808510638,10.846153846153848,148.4375,,,0.035713606225855475,0.027839064767916383,0.002697595779319832,1.2828594108166391,0.5390711308103134,0.4202106062948495,-3.5813150371866316,2021-10-14 16:43:02,2021-10-14 16:43:02.756,1.2986300383715992,0.5957404249721573,0.9907239807436748,1.684709076678212,0.149427530805183,0.4108103025513554,0.4085271764320929,0.4302523599598427,1.1634750250699322,0.8488865569289359,0.9887461399743144,1.047543329606812,0.8453026301777421,1.1668475708437358,0.9227046513196288,0.9805665299080764,0.6996209786819715,0.9118701319794476,0.6058432435159844,0.8718871007620272,826.4102564102565,784.5054945054945,799.0109890109891,788.5347985347986,709.5604395604396,-0.207031,0.045166000000000005,0.9869379999999999,4.3141169999999995,-10.564728,5.480499,63.0,65.0,-2.0
843.0987452264051,36.728878411997655,,,,,,,33.21336540595034,33.33098179258468,0.043564147877049104,0.03939439548926295,846.1538461538463,34.21384615384618,0.04043454545454548,53.846153846153925,17.730496453900713,58.86524822695035,10.846153846153848,140.625,,,0.03273897245449715,0.02506167416513676,0.002336052294067322,1.306336210373378,0.5444092051257917,0.4167450927278424,-3.6864155254752333,2021-10-14 16:43:03,2021-10-14 16:43:03.760,1.1212332041458601,0.7438815785026089,0.7876469423260483,1.3470902566894618,-0.0972860432781356,0.1206933245266949,0.3310064692899117,0.458728194045423,0.8351044027647611,0.8488865569289359,0.8152316817787769,0.906088542689112,0.710884899320495,0.8688089225302864,0.4512662030759947,0.7344833211031617,0.6602049623094487,0.6471338163568199,0.2247543461885288,0.6227147995561874,719.2307692307692,765.1648351648352,779.2673992673992,832.4542124542122,783.2967032967032,-0.008423,0.044433999999999994,1.014832,4.702911,-14.333038,-4.4487,61.0,69.0,-8.0
843.8461538461537,36.615347411773705,,,,,,,33.383669229857915,33.501459856461075,0.043391022456978866,0.039561321785611024,846.1538461538463,34.21384615384618,0.04043454545454548,46.15384615384619,17.857142857142858,60.0,10.769230769230768,140.625,,,0.030921573673350917,0.02308002313839989,0.002062993540598586,1.3397548818703078,0.5515348186621529,0.41166845228599297,-3.7687878348124157,2021-10-14 16:43:04,2021-10-14 16:43:04.757,1.2384692308375491,1.024214737383275,0.588344262760467,1.3610767368599879,0.9134244639428796,-0.2106323243853708,0.04530507679363558,0.9544177659487548,1.094395255849817,0.1128828811685001,0.7270936596211142,0.9119078826541316,1.0155241167299471,0.60487951354442,0.9656510235275906,1.03046744106252,0.7274616941337567,0.2560369883160408,0.7591139685190204,0.8561248900141074,770.8058608058608,794.981684981685,818.7545787545787,1173.736263736264,1030.695970695971,0.065979,0.017151,1.0108030000000001,5.824432,-8.867493,2.7439880000000003,59.0,72.0,-13.0
844.2307692307692,36.5155172186266,,,,,,,33.364536358348495,33.484052600138014,0.04325300445030941,0.03952063532196178,846.1538461538463,34.21384615384618,0.04043454545454548,46.15384615384619,17.857142857142858,60.0,10.769230769230768,140.625,,,0.02962506011554473,0.021628865119801714,0.001886619680336727,1.369700164638889,0.557485064606509,0.40701248273083596,-3.833726508271525,2021-10-14 16:43:05,2021-10-14 16:43:05.757,1.454573129071121,0.5234689173099397,0.4925472552800668,1.616860675630338,1.168751927212714,-0.027846121114293892,0.1779371339293432,0.9855644366925642,1.076796499754799,0.6861860794686169,0.761825581452158,0.8355922037598282,1.244009260477477,1.289169064515455,0.9869323708295188,1.3309258994012159,0.8187512994576136,0.9538471875455532,0.7100681962512506,1.1089483124635602,838.4981684981685,786.1172161172162,811.5018315018315,1081.868131868132,786.9230769230769,0.135925,0.06689500000000001,1.0008540000000001,4.351501,-6.25061,-0.680389,57.99999999999999,78.0,-20.000000000000007
844.4626295690125,36.37287172629552,,,,,,,33.2451637525403,33.36449079079983,0.04307221000988417,0.03936842506518922,846.1538461538463,34.21384615384618,0.04043454545454548,46.15384615384619,17.730496453900713,59.57446808510638,10.846153846153848,140.625,,,0.028908942896067068,0.020613283472169525,0.0017724712100942784,1.4024424073485289,0.5635854047471657,0.4018599279329308,-3.881819582253233,2021-10-14 16:43:06,2021-10-14 16:43:06.757,1.77977775506935,1.042056994341327,0.8951525072384853,1.616860675630338,0.9886613732424296,0.2527252455012164,0.3733231896647221,0.9855644366925642,1.06015114146583,0.7077245408820897,0.630155737209103,0.8355922037598282,0.7862429614580999,0.8866089835482641,0.4965005189005535,1.3309258994012159,0.7828165589159023,0.7088233811538066,0.2732058760493761,1.1089483124635602,724.0659340659341,795.7875457875458,765.9706959706958,1006.5201465201468,661.6117216117217,-0.091003,0.024658000000000003,1.001831,2.639313,18.35556,0.583191,61.0,83.0,-22.0
844.353518821604,36.390833029047954,,,,,,,33.22608839642119,33.34539250880931,0.04309904822785094,0.03935092074086712,846.1538461538463,34.21384615384618,0.04043454545454548,46.15384615384619,17.730496453900713,59.57446808510638,10.846153846153848,140.625,,,0.02949639987225638,0.020379716411706102,0.0017503313138931098,1.4473410363705383,0.5713428144818078,0.3947534134142636,-3.8932151663135137,2021-10-14 16:43:07,2021-10-14 16:43:07.757,1.7238642907927366,1.4036878166479299,1.32521156609182,1.616860675630338,0.9864449188683908,0.5207310932322186,0.4673663950063121,0.9855644366925642,1.05329310559659,0.536837347295842,0.4839666147680036,0.8355922037598282,0.7284166358659904,0.6823174685741532,0.7083333275776169,1.3309258994012159,0.7671762303156979,0.4865699953614779,0.3186242687417665,1.1089483124635602,848.5714285714287,705.1282051282053,767.5824175824176,952.9304029304027,1011.355311355311,-0.21447800000000009,0.038939999999999995,0.983398,5.114136,-3.334656,-1.958923,59.0,90.0,-31.0
844.2444080741952,36.4548613115585,,,,,,,33.092253028191124,33.20883337981155,0.04318045931120306,0.03919747967733397,846.1538461538463,34.21384615384618,0.04043454545454548,46.15384615384619,17.730496453900713,58.86524822695035,10.846153846153848,140.625,,,0.029750264328518745,0.020018371130167648,0.001742245508125105,1.4861481054112915,0.5775530095803809,0.38862412667850704,-3.911104870534628,2021-10-14 16:43:08,2021-10-14 16:43:08.757,1.7238642907927366,1.4036878166479299,1.413631826618936,1.616860675630338,0.9864449188683908,0.5207310932322186,0.2414389893260759,0.9855644366925642,1.05329310559659,0.536837347295842,0.2991285999665592,0.8355922037598282,0.7284166358659904,0.6823174685741532,0.860161779858871,1.3309258994012159,0.7671762303156979,0.4865699953614779,0.4795486567267502,1.1089483124635602,797.8021978021977,778.8644688644687,788.1318681318681,880.4029304029305,830.8424908424909,-0.249329,0.042602999999999995,0.9810180000000001,2.422485,-3.521576,3.8505550000000004,67.0,96.0,-29.0
842.9035752979414,37.65464504068877,,,,,,,33.07635214366622,33.170377988315465,0.04467254160996882,0.03924096790308988,846.1538461538463,34.21384615384618,0.04043454545454548,51.92307692307702,17.6056338028169,59.15492957746479,10.923076923076923,164.0625,,,0.03151243184036267,0.020628373379757783,0.001842536054508111,1.5276256280723133,0.5837436345418117,0.38212479799676347,-3.881087802329074,2021-10-14 16:43:09,2021-10-14 16:43:09.757,1.7238642907927366,1.4036878166479299,1.413631826618936,1.616860675630338,0.9864449188683908,0.5207310932322186,0.2414389893260759,0.9855644366925642,1.05329310559659,0.536837347295842,0.2991285999665592,0.8355922037598282,0.7284166358659904,0.6823174685741532,0.860161779858871,1.3309258994012159,0.7671762303156979,0.4865699953614779,0.4795486567267502,1.1089483124635602,641.8681318681319,740.5860805860806,798.2051282051282,844.1391941391942,649.5238095238095,-0.261963,0.003662,0.965881,1.981354,-2.2953799999999998,-4.164581,75.0,100.0,-25.0
841.189307146754,38.85659474280785,,,,,,,32.906537901857575,33.01290718187562,0.04619244968128077,0.03911906347629869,846.1538461538463,34.21384615384618,0.04043454545454548,53.846153846153925,17.730496453900713,58.86524822695035,10.846153846153848,195.3125,,,0.0352569255740024,0.022279146333209852,0.002089219724681336,1.5825079222828002,0.5913082285897525,0.3736526182673249,-3.8041041800426614,2021-10-14 16:43:10,2021-10-14 16:43:10.757,1.769790633249768,1.541895480977945,0.9722377803865582,1.342911334568688,0.6229753933763744,0.5713502369287827,0.5881450549196414,0.6079624482016154,0.6243934213107871,0.9217127348770401,0.9501800114419582,0.8680669210024609,0.9794549569485341,1.330704626879676,0.8234614051091049,0.9556454093031984,0.9715255045509532,1.322341967583563,0.5927478241827938,1.014131990332285,801.025641025641,823.5897435897436,788.9377289377289,880.4029304029305,971.868131868132,-0.248108,0.010131999999999999,0.972778,3.02063,-3.274841,-3.117828,86.0,99.0,-13.0
840.0981996726676,41.23831846828317,,,,,,,32.777845434229306,32.86428238708571,0.04908749772865968,0.039016683343686166,846.1538461538463,34.21384615384618,0.04043454545454548,53.846153846153925,17.730496453900713,58.86524822695035,10.846153846153848,226.5625,,,0.03717781039923609,0.022835138681280315,0.002253335806369791,1.6280965453349114,0.5970777037167677,0.36673359784934895,-3.7794547591742007,2021-10-14 16:43:11,2021-10-14 16:43:11.757,1.634028868040397,1.571120002429299,0.8168421926426287,1.36942967603038,1.005742837609565,0.5793648376653271,0.25074709180614496,1.0693129844857099,0.8475790638763112,0.9017173165068024,0.9415518426345988,0.9200930707980536,1.109373380189059,1.342081425445251,0.8610140049610622,0.9785772702039632,0.7355022868116222,1.293617421561853,0.639184329706626,1.082396718109215,775.6410256410257,816.3369963369963,813.9194139194141,843.7362637362637,766.3736263736264,-0.24340799999999999,0.030823000000000007,0.9912110000000001,4.61319,-5.787048,2.34024,94.0,100.0,-6.0
837.3781148429036,45.87652224589901,,,,,,,32.66782883817749,32.755706954292,0.05478591025095714,0.0390120403902676,846.1538461538463,34.21384615384618,0.04043454545454548,51.92307692307702,17.6056338028169,58.450704225352105,10.923076923076923,242.1875,,,0.040250178690688525,0.02403382435868516,0.002513636570058697,1.6747305002311554,0.6025688769843774,0.3598005033652923,-3.7282930925548015,2021-10-14 16:43:12,2021-10-14 16:43:12.757,1.7549797182789617,1.571120002429299,1.0591803046895858,1.325680467276239,0.9414988081873448,0.5793648376653271,0.1671935922159921,1.088469590650747,1.003655776601591,0.9017173165068024,0.7667628223416824,0.9637392021146508,1.086233930873753,1.342081425445251,0.938311843457893,0.9644712424378512,0.8005548719003837,1.293617421561853,0.730515860909013,1.1115925424969169,796.5934065934067,953.7362637362636,844.5421245421246,816.7399267399268,748.6446886446887,-0.26355,0.044006,0.9785159999999999,4.815062999999999,-0.456085,3.588867,100.0,97.0,3.0
836.1863488624051,47.416699487817446,,,,,,,32.667828838177485,32.76778434299405,0.05670590000940076,0.03906764189898655,846.1538461538463,34.21384615384618,0.04043454545454548,51.92307692307702,17.6056338028169,58.450704225352105,10.923076923076923,242.1875,,,0.04277426994180937,0.02469030023228394,0.0027957397915180852,1.7324321510630978,0.6087970571542461,0.3514117749319424,-3.7013448156226794,2021-10-14 16:43:13,2021-10-14 16:43:13.757,1.887412565693875,1.571120002429299,1.0519433583676,1.137251849986947,0.4940147798294161,0.5793648376653271,0.1843646830877761,0.8593100085319882,0.9962106737170381,0.9017173165068024,-0.02000940969211451,0.8182417181906413,1.042587708773224,1.342081425445251,0.6422115257058646,0.9689056363560729,0.8969331854387561,1.293617421561853,0.4783268496321003,0.9026014794957224,682.1611721611722,749.4505494505495,803.8461538461539,895.7142857142858,934.7985347985347,-0.096985,0.054688,1.04718,6.773986999999999,-20.269623,-6.923522999999999,100.0,94.0,6.0
835.5567509413663,47.845525001739226,,,,,,,33.74060168921406,33.85986325896832,0.05726184959649343,0.04038098148474148,846.1538461538463,34.21384615384618,0.04043454545454548,53.846153846153925,18.88111888111888,59.44055944055943,11.0,242.1875,,,0.04419098502164828,0.024867737619056425,0.003007853437379789,1.7770408268979092,0.6131966776632641,0.3450661731467873,-3.6941839935774494,2021-10-14 16:43:14,2021-10-14 16:43:14.757,1.887412565693875,1.169359029568251,1.066295355818071,1.137251849986947,0.4940147798294161,0.6446772153510465,0.367829133177721,0.8593100085319882,0.9962106737170381,0.8841889103158714,0.7943352147978658,0.8182417181906413,1.042587708773224,1.073267361440642,0.4723922599537014,0.9689056363560729,0.8969331854387561,1.040708639511643,0.3988065774384936,0.9026014794957224,751.8681318681319,851.7948717948718,774.4322344322345,939.6336996336996,695.8608058608058,-0.19134500000000002,0.045776,0.996948,4.762726,-3.962708,0.934601,98.0,92.0,6.0
835.4279523293608,47.990005415870144,,,,,,,33.46108383033578,33.57876825394052,0.05744361950311003,0.04005262660536886,846.1538461538463,34.21384615384618,0.04043454545454548,57.692307692307736,18.30985915492958,59.15492957746479,11.833333333333336,257.8125,,,0.045699572289332725,0.02512586230585249,0.003245353710633612,1.8188260260698816,0.6169715934526199,0.33921418794835023,-3.683857592560892,2021-10-14 16:43:15,2021-10-14 16:43:15.757,1.887412565693875,1.5055685638637422,1.7514920205494309,1.137251849986947,0.4940147798294161,1.068006114017408,0.9404822459519498,0.8593100085319882,0.9962106737170381,1.1522131507799551,0.9346870031755024,0.8182417181906413,1.042587708773224,1.0727086490577271,0.513377422171574,0.9689056363560729,0.8969331854387561,0.7971898555942717,0.2340249709746675,0.9026014794957224,790.5494505494507,755.8974358974359,781.2820512820513,906.9963369963368,664.8351648351647,-0.26367199999999996,0.061767999999999997,0.9884639999999999,4.643097,-2.654266,3.9328,100.0,88.0,12.0
836.7280606717227,48.524274343379744,,,,,,,34.734897038955694,34.858342543662026,0.05799288517278196,0.04151276701664651,846.1538461538463,34.21384615384618,0.04043454545454548,53.846153846153925,19.718309859154925,59.15492957746479,10.923076923076923,242.1875,,,0.046462911144595984,0.024914336409837604,0.0034810401849305877,1.8649066296724552,0.6206782515032533,0.3328200144863375,-3.6923118817661136,2021-10-14 16:43:16,2021-10-14 16:43:16.757,1.8207812031200001,1.949222791017706,2.110145507001833,1.9125332322773116,0.68661700788292,1.1610477995343391,1.0604159927663122,0.4036586634224181,0.8338124153829011,1.16301626699201,0.927495559331578,0.4847273257264659,0.7426606236027682,1.099679723663455,0.6661162811752529,0.8382212483486118,0.9513364232465792,0.7944357230214233,0.3849861409145865,1.113313664962853,1001.684981684982,734.1391941391942,753.4798534798535,830.4395604395604,935.6043956043956,-0.291443,0.0802,0.9718629999999999,3.20755,-8.224487,2.2505189999999997,95.0,88.0,7.0
836.5655471289275,48.557060144801156,,,,,,,34.65627699185851,34.77913967539641,0.05804334198491415,0.041426851859723376,846.1538461538463,34.21384615384618,0.04043454545454548,53.846153846153925,19.014084507042245,59.15492957746479,10.923076923076923,242.1875,,,0.04650884856024262,0.024545003174797908,0.0036350410958211,1.894839785883448,0.6227010040912676,0.3286298972242343,-3.707246982126116,2021-10-14 16:43:17,2021-10-14 16:43:17.757,1.8207812031200001,2.0021215877761684,1.5362845397233034,1.5741409448874708,0.68661700788292,0.9942015191506322,0.6741478813091691,0.3769937348283898,0.8338124153829011,0.7527910741472597,0.6659078248218473,0.5567280506279875,0.7426606236027682,0.9634547922235436,0.8770096262526855,0.9112267075689168,0.9513364232465792,0.9659568737827392,0.6110084271926248,1.089374092928162,758.3150183150183,682.1611721611722,802.6373626373628,805.054945054945,676.1172161172161,-0.30127,0.070862,0.9586180000000001,3.431854,-4.0898129999999995,0.695343,89.0,89.0,0.0
836.7822318526546,48.39196243112024,,,,,,,34.63205030103202,34.75534361881017,0.05783101097161127,0.041387172173046605,846.1538461538463,34.21384615384618,0.04043454545454548,53.846153846153925,19.014084507042245,59.15492957746479,10.923076923076923,242.1875,,,0.047062415370247135,0.0244988991511471,0.003871794095730172,1.9210012286631075,0.6238960084373785,0.3247764754797006,-3.709127095047197,2021-10-14 16:43:18,2021-10-14 16:43:18.757,1.8207812031200001,2.0021215877761684,1.4236123389620667,1.235030381566744,0.68661700788292,0.9942015191506322,0.5993432101500415,0.3723194233136469,0.8338124153829011,0.7527910741472597,0.8150050688711717,0.5374652946628816,0.7426606236027682,0.9634547922235436,1.258946738067801,0.975283724196543,0.9513364232465792,0.9659568737827392,1.104087760021051,1.035255253208525,720.8424908424909,753.8827838827838,806.6666666666667,783.2967032967032,678.9377289377289,-0.30456500000000003,0.069702,0.961548,4.433746,-5.659943,0.650482,82.0,86.0,-4.0
837.3239436619721,48.40783819822173,,,,,,,34.72281323374084,34.84621552412345,0.05781255697348599,0.041468792928437324,846.1538461538463,34.21384615384618,0.04043454545454548,53.846153846153925,19.014084507042245,59.15492957746479,10.923076923076923,242.1875,,,0.04763937013963706,0.024685363002975597,0.004036296489937702,1.929863058278486,0.6238701909714673,0.3232717411192814,-3.70154480197228,2021-10-14 16:43:19,2021-10-14 16:43:19.772,1.8207812031200001,0.7808236461176042,1.2078145278070649,1.235030381566744,0.68661700788292,0.4839809465860043,0.6902472383339264,0.3723194233136469,0.8338124153829011,1.3222974827539342,1.180613771177278,0.5374652946628816,0.7426606236027682,0.8629148899628376,1.086849188378598,0.975283724196543,0.9513364232465792,1.124889274024291,0.9826206709012356,1.035255253208525,708.7545787545787,788.5347985347986,788.1318681318681,777.2527472527472,844.1391941391942,-0.297302,0.056641,0.962708,4.022522,-5.787048,0.343933,76.0,79.0,-3.0
838.6782231852657,49.34370282853847,,,,,,,34.60174308397194,34.71262504530441,0.05883508294889678,0.04125747173040446,846.1538461538463,34.21384615384618,0.04043454545454548,53.846153846153925,18.30985915492958,59.15492957746479,10.923076923076923,242.1875,,,0.04905481072840017,0.025398053892284937,0.00435228537946837,1.93143974481058,0.6224822962497328,0.32228926526039825,-3.6730827263069656,2021-10-14 16:43:20,2021-10-14 16:43:20.757,0.8954405209512564,0.8291631501300847,0.4821474474859082,1.001353147160652,0.7985380498123142,0.5334248831266059,0.2974090596976369,0.3050206358703627,0.7443399064852075,0.8073347729664566,0.7874225000434625,1.080666141501316,0.8885804350240354,1.2760259874352529,0.9087759729693556,1.1136735476193769,1.052903323104813,1.165312205229577,0.7034024759333407,1.296057443810796,682.5641025641024,784.9084249084249,783.6996336996338,734.945054945055,622.1245421245421,-0.29632600000000003,0.0625,0.968506,3.409424,-3.8056949999999996,1.981354,69.0,72.0,-3.0
839.2199349945828,49.33831218847643,,,,,,,34.60174308397194,34.724712395893214,0.05879068183573941,0.041230840261433116,846.1538461538463,34.21384615384618,0.04043454545454548,53.846153846153925,18.30985915492958,59.15492957746479,10.923076923076923,242.1875,,,0.0506230440882498,0.026368152023629788,0.004643984654400846,1.9198555910510533,0.6201130886594391,0.3229998607967952,-3.6355983598124353,2021-10-14 16:43:21,2021-10-14 16:43:21.757,0.7616990487639217,0.6785579797654943,0.4594708519668214,0.6594696585242914,0.6431398137071961,0.4724145262929298,0.254147069967568,0.2672675083216099,0.9451626437499598,1.009762218616445,0.8613910163189953,0.8247581091427179,0.969755676741879,1.438323136676212,1.142036237488592,1.074381080014475,0.9556362649410682,1.389833416377471,0.8192125355610145,1.2575669347476728,779.6703296703297,781.6849816849817,803.8461538461539,773.6263736263736,686.5934065934066,-0.288025,0.0625,0.9682620000000001,3.596344,-4.022522,1.300964,66.0,65.0,1.0
839.2741061755147,49.35870367696058,,,,,,,34.57140929793271,34.69448612349645,0.058811183752449,0.0411920361221092,846.1538461538463,34.21384615384618,0.04043454545454548,53.846153846153925,18.30985915492958,58.450704225352105,10.142857142857142,242.1875,,,0.053045487653956266,0.028068238708444455,0.0050425859826347475,1.8898758915712548,0.6156889287638234,0.32578273076542386,-3.573116636980815,2021-10-14 16:43:22,2021-10-14 16:43:22.757,0.991039014430434,0.4864249736154738,0.2596468706048684,0.4062128414146164,0.6279014924587486,0.4103050208535282,0.1813957037666067,0.3734466559118096,0.9132987354880584,1.165071297603079,0.8612257707844879,1.1194870625070048,0.8022215093404573,1.3646517324242509,0.91874742862949,0.9013624785984472,0.91808278427283,1.2548507755724179,0.8765343172687535,1.224723202366333,738.974358974359,780.0732600732601,786.5201465201468,788.1318681318681,790.5494505494507,-0.291687,0.064941,0.9692379999999999,3.2673650000000003,-5.054321,1.203766,62.0,54.0,8.0
839.0032502708559,49.25606182773252,,,,,,,34.528897228257534,34.65195203932743,0.05870783195634958,0.0411546644391551,846.1538461538463,34.21384615384618,0.04043454545454548,53.846153846153925,18.30985915492958,58.450704225352105,10.142857142857142,242.1875,,,0.05530931437123169,0.0298306081217422,0.005381004881104273,1.854112867746709,0.6110113536803008,0.32954377498218795,-3.5122202944164718,2021-10-14 16:43:23,2021-10-14 16:43:23.757,1.128316252661854,0.7606834380305064,0.5489225251090294,0.9616286156248086,0.9531104701858342,0.5211091746497293,0.503212848498966,0.5366515821392774,0.9015030079802774,1.168933634280627,0.7825639183221843,1.122560021802008,0.9374249440793953,1.300211838399098,1.055008371936658,1.0230144600774058,0.9293102373229551,1.203371552583223,0.9211928351222112,1.0515907379252891,783.2967032967032,798.2051282051282,789.7435897435898,756.3003663003664,628.974358974359,-0.288391,0.062805,0.970642,4.209442,-6.74408,0.971985,54.0,42.0,12.0
838.897981451173,49.44983069992643,,,,,,,34.65199529152476,34.77637565577512,0.05894617914610465,0.04130656654052474,846.1538461538463,34.21384615384618,0.04043454545454548,53.846153846153925,18.439716312056735,58.86524822695035,10.071428571428571,242.1875,,,0.058355655961173515,0.032475827225375425,0.00580384560900488,1.7968951354555958,0.6038749667280943,0.3360657808086191,-3.4272592440670513,2021-10-14 16:43:24,2021-10-14 16:43:24.758,1.508249474161218,1.098753210060167,0.9322718194167534,1.4649535067708799,1.11687499355525,0.3046915656993816,0.4051456097601111,0.6711071225476738,0.638220919697958,0.6796289833452662,0.6944347793091581,1.1427274307378221,0.8950983356224865,0.5996804526945302,0.8629668429072564,1.240632812057077,0.8791688319449793,0.5452155698917126,0.4912796333684524,0.8679642022391308,849.3772893772895,765.9706959706958,797.8021978021977,645.4945054945055,694.6520146520148,-0.279541,0.060608,0.969666,3.334656,-7.5740050000000005,1.6523740000000002,40.0,28.000000000000004,11.999999999999995
838.1906825568798,49.98981785476619,,,,,,,35.131330972222074,35.25143261281692,0.05964014978342816,0.04191329217005231,846.1538461538463,39.91615384615382,0.047173636363636334,53.846153846153925,19.014084507042245,59.15492957746479,10.142857142857142,242.1875,,,0.058144842103397126,0.03308639743247968,0.005837466918085353,1.757363950610063,0.5990070768170185,0.34085544807555385,-3.408633034765254,2021-10-14 16:43:25,2021-10-14 16:43:25.757,1.7765840557953751,1.310900549701125,1.233252164785305,1.7882898597789978,1.083482213424029,0.4740784279642635,0.2332668357171546,0.5596410720466822,0.5729447426834012,0.5430543523549045,0.3705260957067133,1.109625093106921,0.7975220352642334,0.664361683269385,0.8128772797332026,1.33819565553149,0.8935096741114849,0.1716718233348934,0.5023626971623285,0.8200807940213906,935.6043956043956,1013.3699633699632,994.0293040293041,838.0952380952382,926.7399267399268,0.190796,0.014343,0.9961549999999999,3.858032,-11.491852,6.572113000000001,30.0,18.0,12.0
837.6489707475622,50.23514931397035,,,,,,,35.250582268891065,35.376210825819406,0.05997160035800898,0.04208276199209268,846.1538461538463,45.61846153846145,0.053912727272727175,53.846153846153925,19.014084507042245,59.15492957746479,10.142857142857142,242.1875,,,0.048151599207105975,0.028555089126510582,0.0048778956786178366,1.686270317482636,0.5902046298340526,0.3500059413458365,-3.5559201056476084,2021-10-14 16:43:26,2021-10-14 16:43:26.757,1.7765840557953751,1.161806041363928,1.2264271735594228,1.7882898597789978,1.083482213424029,0.5357327987351004,0.08255280994585028,0.5596410720466822,0.5729447426834012,0.4390885733080374,0.3114203975260433,1.109625093106921,0.7975220352642334,0.6516170671082847,0.6729664629671285,1.33819565553149,0.8935096741114849,0.2413573881356081,0.501618907107304,0.8200807940213906,886.8498168498169,809.8901098901099,835.2747252747251,658.3882783882783,728.0952380952382,0.11615,0.021973,0.99585,8.142242,7.379608,-9.989014,33.0,10.0,23.0
837.8114842903574,50.19992726847593,,,,,,,35.05360007915562,35.17430801408305,0.059917926896163584,0.041839483865331234,846.1538461538463,45.61846153846145,0.053912727272727175,53.846153846153925,18.30985915492958,59.15492957746479,10.142857142857142,242.1875,,,0.04271720447614576,0.026491996453685045,0.004331669616958636,1.6124569754803728,0.5808634594414747,0.3602350129487501,-3.6309126122230304,2021-10-14 16:43:27,2021-10-14 16:43:27.757,1.7765840557953751,1.161806041363928,1.2264271735594228,1.7882898597789978,1.083482213424029,0.5357327987351004,0.08255280994585028,0.5596410720466822,0.5729447426834012,0.4390885733080374,0.3114203975260433,1.109625093106921,0.7975220352642334,0.6516170671082847,0.6729664629671285,1.33819565553149,0.8935096741114849,0.2413573881356081,0.501618907107304,0.8200807940213906,780.8791208791209,850.1831501831501,844.5421245421246,774.4322344322345,774.8351648351648,-0.082458,0.062439,1.007263,4.269257,-0.9869379999999999,-6.06369,35.0,16.0,19.0
838.0281690140845,49.934067468517924,,,,,,,35.2446292869574,35.37010949205553,0.059585189752349124,0.04205661646006681,846.1538461538463,45.61846153846145,0.053912727272727175,53.846153846153925,18.30985915492958,59.859154929577464,10.142857142857142,242.1875,,,0.0426263525378306,0.027432260264174318,0.004305644482411505,1.553876790586567,0.5732102234921839,0.3688903952776108,-3.5960355762544545,2021-10-14 16:43:28,2021-10-14 16:43:28.758,1.286349341999056,1.161806041363928,1.2264271735594228,1.7882898597789978,0.33608499260263597,0.5357327987351004,0.08255280994585028,0.5596410720466822,0.6811525543731847,0.4390885733080374,0.3114203975260433,1.109625093106921,1.340456656299507,0.6516170671082847,0.6729664629671285,1.33819565553149,1.0488229592130391,0.2413573881356081,0.501618907107304,0.8200807940213906,790.1465201465203,858.2417582417582,777.2527472527472,819.96336996337,948.0952380952381,-0.120422,0.051514,1.005981,4.523468,-2.459869,-4.568329,43.0,23.0,20.0
838.2978723404256,49.957446685953315,,,,,,,35.16655215588449,35.29127300778369,0.059593908483243786,0.041949948003212466,846.1538461538463,45.61846153846145,0.053912727272727175,53.846153846153925,18.439716312056735,58.86524822695035,10.071428571428571,242.1875,,,0.04225574200994092,0.028214701473895907,0.004236799013657549,1.4976497996633318,0.5656177446431401,0.3776702302302512,-3.5679121080211917,2021-10-14 16:43:29,2021-10-14 16:43:29.757,1.1763399339879221,1.161806041363928,1.2264271735594228,1.7882898597789978,0.1920678987593193,0.5357327987351004,0.08255280994585028,0.5596410720466822,0.6294244400582796,0.4390885733080374,0.3114203975260433,1.109625093106921,1.312655005184036,0.6516170671082847,0.6729664629671285,1.33819565553149,1.039364282353561,0.2413573881356081,0.501618907107304,0.8200807940213906,745.0183150183151,773.6263736263736,762.3443223443222,772.4175824175826,739.7802197802197,-0.151001,0.040161,1.0048219999999999,2.960815,-4.7253419999999995,-2.773895,50.0,30.0,20.0
838.5157096424703,49.889688872049675,,,,,,,35.11340834663309,35.232465069100925,0.05949761978022074,0.041875671430896495,846.1538461538463,45.61846153846145,0.053912727272727175,53.846153846153925,17.6056338028169,59.15492957746479,10.142857142857142,242.1875,,,0.036903604305039216,0.0255337851763932,0.003662225584883639,1.4452852975029251,0.5583028625509359,0.3862924943023617,-3.667752794856888,2021-10-14 16:43:30,2021-10-14 16:43:30.757,1.81176596885425,1.161806041363928,1.2264271735594228,1.9007816548976384,0.40458652575312704,0.5357327987351004,0.08255280994585028,0.8097923450136647,1.1219425589836278,0.4390885733080374,0.3114203975260433,0.9952121526546448,0.9742355497619644,0.6516170671082847,0.6729664629671285,1.051914936566178,0.9122439920538296,0.2413573881356081,0.501618907107304,1.1951312543897008,690.2197802197803,784.9084249084249,758.3150183150183,674.9084249084249,711.978021978022,-0.16735799999999998,0.047791,1.0035399999999999,6.20575,-2.093506,-0.5159,48.0,42.0,6.0
838.6240520043337,49.78840880986761,,,,,,,35.682467556412504,35.809678182913345,0.05936916391900755,0.042548824435848766,846.1538461538463,45.61846153846145,0.053912727272727175,53.846153846153925,18.30985915492958,59.859154929577464,10.142857142857142,242.1875,,,0.03744326608104983,0.026999441410828287,0.0036632724941329264,1.3868163237641271,0.5497794186169948,0.3964327569528252,-3.611939101679659,2021-10-14 16:43:31,2021-10-14 16:43:31.757,1.8085089302715311,1.161806041363928,1.2264271735594228,1.983689486487475,0.442906412224962,0.5357327987351004,0.08255280994585028,0.9310388289153448,1.114168558926207,0.4390885733080374,0.3114203975260433,0.9249123573726072,0.9399612547945162,0.6516170671082847,0.6729664629671285,0.9099775906661784,0.92392381911733,0.2413573881356081,0.501618907107304,1.0453104604463308,770.8058608058608,803.4432234432236,842.1245421245421,675.3113553113553,971.0622710622713,-0.216248,0.044861,0.989502,4.777679,-3.3197019999999995,0.9495540000000001,44.0,41.0,3.0
838.8949079089924,49.68130121788637,,,,,,,35.77643076729804,35.90380940335896,0.059222318254047675,0.04264709492214398,846.1538461538463,39.91615384615382,0.047173636363636334,53.846153846153925,18.30985915492958,59.859154929577464,10.142857142857142,242.1875,,,0.03672187428807325,0.027266363708567682,0.0035541013237812475,1.3467829696900302,0.5436867401625515,0.4036929129625719,-3.6021014350359977,2021-10-14 16:43:32,2021-10-14 16:43:32.758,1.8085089302715311,1.161806041363928,1.2264271735594228,1.983689486487475,0.442906412224962,0.5357327987351004,0.08255280994585028,0.9310388289153448,1.114168558926207,0.4390885733080374,0.3114203975260433,0.9249123573726072,0.9399612547945162,0.6516170671082847,0.6729664629671285,0.9099775906661784,0.92392381911733,0.2413573881356081,0.501618907107304,1.0453104604463308,784.1025641025641,776.4468864468864,774.4322344322345,664.8351648351647,758.7179487179487,-0.217468,0.034668,0.986084,1.188812,-8.142242,-6.2132260000000015,37.0,40.0,-3.0
839.1707583196946,49.87643827360174,,,,,,,35.55501255807781,35.67752323828815,0.05943538639677023,0.04236922248014343,846.1538461538463,45.61846153846145,0.053912727272727175,53.846153846153925,17.730496453900713,60.28368794326241,9.4,242.1875,,,0.03397265431563851,0.026004025463011768,0.0032484589425053217,1.3064382806408703,0.5373282685146724,0.4112925015111216,-3.6495039274444334,2021-10-14 16:43:33,2021-10-14 16:43:33.758,1.8100370390085119,1.161806041363928,1.1906284463938992,1.450423380703153,0.8300735030548285,0.5357327987351004,0.4133552820906321,0.8459257592906286,0.9760168163497625,0.4390885733080374,0.9337479962409706,1.038294806184627,1.025737562301984,0.6516170671082847,1.4333068838508782,1.112972826880458,0.806001571837299,0.2413573881356081,1.1071422544737382,1.032823989439775,731.7216117216118,768.3882783882782,815.5311355311355,752.6739926739926,643.0769230769231,-0.16955599999999998,0.030396,0.996216,4.4487,-4.837494,-1.40564,29.0,39.0,-10.000000000000004
839.7708674304421,49.63056626754953,,,,,,,35.53122993832101,35.65535740612204,0.05910012860937978,0.04231062461959488,846.1538461538463,34.21384615384618,0.04043454545454548,53.846153846153925,17.730496453900713,60.28368794326241,8.8125,234.375,,,0.03640811178865501,0.02834619111044542,0.0034537369457626533,1.284409310824085,0.5337803559736367,0.4155843090479933,-3.5632626101997045,2021-10-14 16:43:34,2021-10-14 16:43:34.757,1.5903709452930548,1.161806041363928,1.280986751802947,1.293021475321497,0.6068592376283765,0.5357327987351004,0.3085356662386212,0.9315700246348256,1.160074279293845,0.4390885733080374,0.9104133131947983,0.9545297881247858,0.9343557044009158,0.6516170671082847,1.158876298276605,1.1134024971670171,0.6781142892475972,0.2413573881356081,0.8631342798871796,1.022221880389688,825.2014652014653,757.1062271062273,771.2087912087912,713.992673992674,1014.981684981685,-0.15783699999999998,0.016052,1.003662,4.590758999999999,-5.450591999999999,-1.9065860000000001,17.0,33.0,-16.0
840.2073104200764,49.48055446262903,,,,,,,35.51338252157085,35.63663359566437,0.05889088781897215,0.04226740481919315,846.1538461538463,34.21384615384618,0.04043454545454548,53.846153846153925,17.730496453900713,60.28368794326241,8.8125,234.375,,,0.03784457028822271,0.029731777094052024,0.003564749512776499,1.272866070820694,0.5319649533103458,0.4179268860292236,-3.515538869320205,2021-10-14 16:43:35,2021-10-14 16:43:35.757,1.4582915770602938,1.312200737190388,1.6206792260634941,1.4063525086986002,0.7984452965045284,0.4421429538851904,0.5322695373500915,0.8151255541067415,0.996527158167416,1.150598453289267,0.8558835595833576,0.783823422930546,0.9580324792311276,1.3687798111800968,0.9453473752500172,0.9801055322248292,0.8202222588110407,1.2353560326284132,0.7502900525873148,0.7628986997180736,790.952380952381,800.2197802197803,776.0439560439563,722.0512820512822,676.1172161172161,-0.15741,0.030945,0.996765,3.9926150000000002,-5.00946,1.719666,9.0,29.0,-20.0
840.9710856519368,49.32765581274172,,,,,,,35.608465375867354,35.727984383073384,0.05865559072640646,0.042342080463162415,846.1538461538463,34.21384615384618,0.04043454545454548,53.846153846153925,17.730496453900713,60.99290780141844,8.8125,234.375,,,0.039675846800286234,0.03112240618360285,0.00370613575660249,1.2748322403551768,0.5325303310450924,0.4177258106499769,-3.469827263136433,2021-10-14 16:43:36,2021-10-14 16:43:36.757,0.7934751600173316,0.6170953305735174,1.277647667622791,1.1686934879140902,0.759222286948636,0.1638500384008499,0.3668493853224081,0.5061908738883543,1.352242577062613,1.150006432039939,0.7207362107179848,0.7536352753115643,0.6911498816471346,1.3562131476283894,0.8015309305377113,0.8490588275564119,0.4994987393131043,1.121298870187069,0.5457697626653438,0.8157002746731917,736.5567765567764,801.4285714285713,796.1904761904763,759.9267399267401,636.6300366300368,-0.15826400000000002,0.027832,1.005188,3.9328,-5.121613,0.897217,5.0,28.000000000000004,-23.000000000000004
841.89852700491,48.96585257544604,,,,,,,35.786064808645676,35.91185160930335,0.05816122846733578,0.04250638724355075,846.1538461538463,34.21384615384618,0.04043454545454548,46.15384615384619,18.439716312056735,60.99290780141844,8.8125,242.1875,,,0.039563506045276864,0.030414555331463405,0.0036382035075732187,1.3008083009633549,0.5374288699304446,0.4131499387976188,-3.492833991357,2021-10-14 16:43:37,2021-10-14 16:43:37.758,1.082564213583232,0.3863418137643591,0.1041228367834127,0.4568682054224552,0.9968684703897108,0.2858209928714324,0.218198027551388,0.3383567449363077,1.273853881865999,1.096099048594385,0.6947267573564065,0.7086835024985545,0.6674403571862324,1.343917033509306,0.6247608679522785,0.6755346765535838,0.6166323966295055,1.063311917012697,0.3767364525058362,0.8020396970155181,802.2344322344322,804.2490842490844,795.7875457875458,763.5531135531136,922.7106227106227,-0.162476,0.027466,1.003906,4.1122440000000005,-4.994507,0.456085,2.0,26.0,-24.0
842.6077468630659,48.51573570226902,,,,,,,35.92751225648643,36.05044397065337,0.05757807934105477,0.04263847845007421,853.8461538461537,34.21384615384618,0.0400702702702703,46.15384615384619,18.439716312056735,61.70212765957447,8.294117647058824,234.375,,,0.04008956255797606,0.029828009838028555,0.003616029193444287,1.3440240490622601,0.5451869851527629,0.40563781989849496,-3.51230739947536,2021-10-14 16:43:38,2021-10-14 16:43:38.758,1.161536534084898,-0.031439785898255516,0.2834839795709554,0.3156229673880895,0.8384192677705886,0.2342363839845574,0.2965297647931696,0.4622175927980793,1.348838032332345,0.9704572876596221,0.6802388140373121,0.7349008483095101,0.6987566565171865,1.153730904874477,0.6725637182614269,0.6969426191756439,0.6150703726223328,0.9867077630933694,0.4142831494472882,0.5950730163865225,794.5787545787546,806.6666666666667,784.1025641025641,774.8351648351648,655.5677655677656,-0.16955599999999998,0.030823000000000007,0.993469,3.947754,-4.590758999999999,1.375732,4.0,25.0,-21.0
843.4260774686305,48.24156206925413,,,,,,,35.768344547688585,35.89334631430095,0.057197143126094974,0.042408392985713576,853.8461538461537,34.21384615384618,0.0400702702702703,46.15384615384619,18.439716312056735,61.70212765957447,8.294117647058824,234.375,,,0.04224627206919851,0.029949124845841425,0.0037036896753329415,1.4106012207920862,0.5566110735587835,0.39459137377339937,-3.508255175353736,2021-10-14 16:43:39,2021-10-14 16:43:39.768,0.9912987302440284,-0.0569094975146746,0.3370091156087046,0.6901211934142735,0.7754977686813584,-0.06687431163225215,-0.2777425287041564,0.4030133326029017,1.22799165966,0.8280442717271257,0.2651338533228486,0.9250637749714324,0.8248171543823659,1.2971698088897499,0.7384498223874517,0.7768315727075515,0.6206514992108176,0.80329080790301,0.4195723608139577,0.5489279372414672,812.3076923076924,770.4029304029305,788.5347985347986,787.7289377289377,1067.765567765568,-0.199707,0.034973000000000004,0.992859,3.170166,-3.5813900000000003,1.4878850000000001,8.0,24.0,-16.0
