HRV_MeanNN,HRV_SDNN,HRV_SDANN1,HRV_SDNNI1,HRV_SDANN2,HRV_SDNNI2,HRV_SDANN5,HRV_SDNNI5,HRV_RMSSD,HRV_SDSD,HRV_CVNN,HRV_CVSD,HRV_MedianNN,HRV_MadNN,HRV_MCVNN,HRV_IQRNN,HRV_pNN50,HRV_pNN20,HRV_HTI,HRV_TINN,HRV_ULF,HRV_VLF,HRV_LF,HRV_HF,HRV_VHF,HRV_LFHF,HRV_LFn,HRV_HFn,HRV_LnHF,Time,TimeStamp,Delta_TP9,Delta_AF7,Delta_AF8,Delta_TP10,Theta_TP9,Theta_AF7,Theta_AF8,Theta_TP10,Alpha_TP9,Alpha_AF7,Alpha_AF8,Alpha_TP10,Beta_TP9,Beta_AF7,Beta_AF8,Beta_TP10,Gamma_TP9,Gamma_AF7,Gamma_AF8,Gamma_TP10,RAW_TP9,RAW_AF7,RAW_AF8,RAW_TP10,AUX_RIGHT,Accelerometer_X,Accelerometer_Y,Accelerometer_Z,Gyro_X,Gyro_Y,Gyro_Z,Attention,Meditation,A_M
867.4340258281865,45.319214071371995,,,,,,,37.782466739208665,37.909861141567866,0.05224514224941,0.0435565882986152,869.2307692307692,45.61846153846162,0.052481415929203634,61.53846153846154,18.97810218978102,62.77372262773723,12.454545454545455,70.3125,,,0.04896666275820565,0.05385475415083281,0.0014076918459179715,0.909235656727038,0.4697983446575056,0.5166959095605991,-2.921464594210104,2021-10-14 15:56:05,2021-10-14 15:56:05.312,1.307163509029385,1.255734266090133,1.1117547942662351,1.7210555180966138,1.055523924828527,0.2226445067980465,0.3576747683578555,0.9354958177968312,0.8757221722600113,0.6919649525246782,0.7612514960100523,1.011972173162169,0.8205078735995935,1.3609403581989228,1.0218669810502259,0.9670140785174064,0.2060125194002145,1.189747722714843,0.9346944252543758,0.7134498818097049,786.9230769230769,761.5384615384613,780.4761904761905,805.4578754578755,868.3150183150183,0.1745,0.019836000000000003,0.993347,1.5776059999999998,-12.531128,2.527161,33.0,51.0,-18.0
868.1078046041548,45.34107261996677,,,,,,,37.92040136312577,38.05343229428756,0.052229771901015985,0.043681673130927495,869.2307692307692,45.61846153846162,0.052481415929203634,61.53846153846154,18.97810218978102,63.503649635036496,12.454545454545455,70.3125,,,0.050425545469592416,0.0532066026146344,0.0013841725962008755,0.9477309768266045,0.4801686551468607,0.5066507974179172,-2.9335727810378214,2021-10-14 15:56:06,2021-10-14 15:56:06.323,0.7224984894795161,1.255734266090133,1.087100650853491,1.095370294472467,0.4832196501215852,0.2226445067980465,0.3114432061055497,0.7499596879507254,0.7726948821335875,0.6919649525246782,0.7647453377935589,0.9329779055824357,0.7115460063703001,1.3609403581989228,0.8239954374941963,0.8261911686900302,0.281582136626526,1.189747722714843,0.6560438586740341,0.4512863591335957,896.9230769230769,1184.212454212454,774.4322344322345,794.981684981685,976.7032967032968,0.192993,-0.000793,0.99469,3.588867,-3.902893,0.35141,28.000000000000004,44.0,-15.999999999999995
868.4446939921393,45.117365140868756,,,,,,,38.057836068038505,38.1984887654757,0.051951915249167424,0.04382298185632416,869.2307692307692,45.61846153846162,0.052481415929203634,61.53846153846154,19.708029197080293,63.503649635036496,12.454545454545455,70.3125,,,0.05200971858847893,0.05273609370995203,0.001370804182791621,0.9862262243868848,0.4901185159600531,0.4969635808100207,-2.942455167733117,2021-10-14 15:56:07,2021-10-14 15:56:07.312,-0.1814860090298179,1.255734266090133,0.6473612988057057,0.4250775107984024,0.05388019674752816,0.2226445067980465,0.2294324048623785,0.3961533484568231,0.7453586496136787,0.6919649525246782,0.7694392712213646,0.9341968944627737,0.5065432589824552,1.3609403581989228,0.879155505956608,0.7499001318005561,0.3365162514726787,1.189747722714843,0.4711885083387649,0.4526073389806395,860.6593406593408,1105.238095238095,785.3113553113553,790.1465201465203,782.4908424908424,0.137146,-0.005981,1.002319,4.299164,4.299164,-0.605621,14.000000000000002,57.99999999999999,-43.99999999999999
868.1639528354857,45.328042831028995,,,,,,,38.1206613823206,38.2573766856366,0.05221138551420428,0.043909518769831186,869.2307692307692,45.61846153846162,0.052481415929203634,61.53846153846154,19.708029197080293,63.503649635036496,12.454545454545455,78.125,,,0.05366445865824042,0.05246300706054982,0.001368480804888736,1.0229009289594084,0.4992230906717895,0.4880463753020993,-2.9476469851692344,2021-10-14 15:56:08,2021-10-14 15:56:08.315,-0.05954314088836516,1.255734266090133,0.6852141713548738,0.601260451028879,-0.2026343704600728,0.2226445067980465,0.007082240658702388,0.3099440279250322,0.7267325482479954,0.6919649525246782,0.7308353003024229,0.660772441953354,0.4247111412377013,1.3609403581989228,0.717602477628213,0.6199736916714567,0.1505701713617762,1.189747722714843,0.2769111460613841,0.4777370196014814,775.6410256410257,1058.901098901099,792.1611721611722,784.5054945054945,931.5750915750915,-0.21533200000000002,0.021667,0.991394,5.5328370000000024,13.518066000000001,-0.014953999999999999,21.0,57.99999999999999,-36.99999999999999
867.3778775968556,45.8372013967653,,,,,,,38.20616577695625,38.34030667465661,0.052845711864085335,0.04404789050282178,869.2307692307692,45.61846153846162,0.052481415929203634,61.53846153846154,19.708029197080293,64.23357664233576,12.454545454545455,78.125,,,0.055771761943809936,0.05243486313051975,0.0013814238587301474,1.0636389343667023,0.5089219352547946,0.47847245790960996,-2.9481835819686566,2021-10-14 15:56:09,2021-10-14 15:56:09.311,0.060352345164068864,1.255734266090133,0.512804135928562,0.4565384273257587,-0.2428712214384188,0.2226445067980465,-0.1718050422098006,0.3813632610904957,0.6626795131956438,0.6919649525246782,0.6855595476000995,0.6535979948368305,0.5407721204656146,1.3609403581989228,0.7027152826798632,0.5765161852957236,0.1713690726214608,1.189747722714843,0.1466370616570718,0.5161554829925582,933.1868131868132,80.58608058608058,756.3003663003664,830.4395604395604,913.846153846154,-0.5661010000000001,0.010559,0.8455809999999999,4.358978,18.422852,3.170166,26.0,55.00000000000001,-29.00000000000001
866.8896321070233,46.02835921927277,,,,,,,38.763553143439225,38.90576437860961,0.05309598536482468,0.04471567280049511,869.2307692307692,45.61846153846162,0.052481415929203634,67.30769230769226,20.28985507246377,64.4927536231884,12.545454545454545,78.125,,,0.05751447701352055,0.05273628093890366,0.0014077345435404062,1.0906054805069123,0.5150927236063048,0.4722997755035031,-2.9424516174394544,2021-10-14 15:56:10,2021-10-14 15:56:10.312,0.060352345164068864,1.255734266090133,0.512804135928562,0.4565384273257587,-0.2428712214384188,0.2226445067980465,-0.1718050422098006,0.3813632610904957,0.6626795131956438,0.6919649525246782,0.6855595476000995,0.6535979948368305,0.5407721204656146,1.3609403581989228,0.7027152826798632,0.5765161852957236,0.1713690726214608,1.189747722714843,0.1466370616570718,0.5161554829925582,668.8644688644688,1135.860805860806,816.7399267399268,759.5238095238095,610.0366300366301,-0.718445,0.014038,0.7150880000000001,3.3197019999999995,-4.785156,2.325287,51.0,56.99999999999999,-5.999999999999992
867.1532846715329,46.543450329397814,,,,,,,39.15661521557971,39.29989605011321,0.05367384423507997,0.04515535593042441,869.2307692307692,45.61846153846162,0.052481415929203634,69.23076923076917,21.16788321167883,65.69343065693431,12.454545454545455,78.125,,,0.059322764445780475,0.05335091701433218,0.0014480454409308231,1.1119352349622036,0.5198200733259151,0.4674913223193116,-2.9308641127348216,2021-10-14 15:56:11,2021-10-14 15:56:11.312,0.4973213454557365,1.255734266090133,0.512804135928562,0.7537176166073413,0.1440572472068652,0.2226445067980465,-0.1718050422098006,0.2461323560350425,0.7291410296164583,0.6919649525246782,0.6855595476000995,0.8221906985270566,0.8314907082052249,1.3609403581989228,0.7027152826798632,1.112982130676164,0.9195769411749828,1.189747722714843,0.1466370616570718,0.9576127369570032,738.1684981684982,981.9413919413921,772.8205128205127,762.3443223443222,825.6043956043958,-0.704041,0.000305,0.723633,2.893524,-3.4468080000000003,1.540222,68.0,69.0,-1.0
867.3778775968556,46.73954861802536,,,,,,,39.089889892661475,39.231771462337385,0.05388602802220558,0.04506673608158344,869.2307692307692,45.61846153846162,0.052481415929203634,69.23076923076917,21.16788321167883,64.96350364963503,12.454545454545455,78.125,,,0.061594945097658865,0.054554092769689734,0.0015164211090356338,1.1290618534835395,0.5234751611347654,0.4636372750701536,-2.9085625416588496,2021-10-14 15:56:12,2021-10-14 15:56:12.324,0.4142834957262001,1.255734266090133,0.512804135928562,0.901738552038556,0.2268886399790901,0.2226445067980465,-0.1718050422098006,0.2615693453660399,0.8177826087325906,0.6919649525246782,0.6855595476000995,0.6157218548604475,0.823700978099633,1.3609403581989228,0.7027152826798632,1.0203621175424151,0.8410966593571475,1.189747722714843,0.1466370616570718,0.8826358366765263,915.4578754578756,886.0439560439563,794.981684981685,799.0109890109891,1094.761904761905,-0.7148439999999999,-0.014403999999999997,0.7146,4.201965,-5.129089,-0.9420780000000001,88.0,97.0,-9.0
867.7709152161707,46.916148575322936,,,,,,,39.095454685898105,39.23797322763001,0.0540651314219671,0.04505273684605922,869.2307692307692,57.02307692307691,0.0656017699115044,69.23076923076917,21.16788321167883,64.96350364963503,12.454545454545455,78.125,,,0.06339076720479725,0.05584252131953018,0.0015838030398723866,1.13517021987736,0.5246837710135792,0.4622071314293853,-2.8852196689769842,2021-10-14 15:56:13,2021-10-14 15:56:13.312,0.4625231522532719,1.255734266090133,0.512804135928562,1.0582266687620732,0.4711743971695795,0.2226445067980465,-0.1718050422098006,0.4965617863509496,0.8687247030134352,0.6919649525246782,0.6855595476000995,0.7032831100809545,0.7893604854735825,1.3609403581989228,0.7027152826798632,0.9934580383675736,0.7017889205781715,1.189747722714843,0.1466370616570718,0.6083313971779069,635.0183150183151,877.1794871794873,783.6996336996338,725.2747252747251,620.5128205128206,-0.71582,-0.02002,0.716919,4.269257,-4.934692,0.18692,88.0,100.0,-12.0
867.7147669848399,46.928263715059025,,,,,,,39.178831736638415,39.32104808067713,0.054082591999818894,0.0451517402115653,869.2307692307692,57.02307692307691,0.0656017699115044,69.23076923076917,21.16788321167883,64.96350364963503,12.454545454545455,70.3125,,,0.06350457379624333,0.056021070231099035,0.0016283587957896372,1.1335837308047352,0.5241640582767304,0.462395537297121,-2.882027404886053,2021-10-14 15:56:14,2021-10-14 15:56:14.319,1.419562670740147,1.255734266090133,0.512804135928562,1.626420669106522,0.8208127952338999,0.2226445067980465,-0.1718050422098006,0.9287782355603909,0.9364023580279348,0.6919649525246782,0.6855595476000995,0.9261912199418924,0.7470409809411622,1.3609403581989228,0.7027152826798632,1.0519209211110292,0.6254481933399415,1.189747722714843,0.1466370616570718,0.7478659015196248,834.0659340659341,864.6886446886447,798.2051282051282,820.3663003663004,752.2710622710623,-0.757324,-0.011658,0.665405,2.990723,-0.171967,1.046753,78.0,90.0,-12.0
866.9848399775408,46.959045111725686,,,,,,,39.295262399668786,39.43133796141972,0.05416362887376689,0.045324047881490914,869.2307692307692,57.02307692307691,0.0656017699115044,69.23076923076917,21.16788321167883,65.69343065693431,12.454545454545455,70.3125,,,0.06263293856000407,0.055639186437861116,0.0016464159624102472,1.1256983174970343,0.5222957022196596,0.4639748448598313,-2.888867533927018,2021-10-14 15:56:15,2021-10-14 15:56:15.312,1.742745671876879,1.255734266090133,0.512804135928562,1.995464972674462,1.134447184990178,0.2226445067980465,-0.1718050422098006,1.22776568243174,0.8693872615891581,0.6919649525246782,0.6855595476000995,0.9261912199418924,0.8317796806404548,1.3609403581989228,0.7027152826798632,1.0935917905914592,0.5961650004965446,1.189747722714843,0.1466370616570718,0.8694498985636049,880.8058608058608,878.3882783882782,795.3846153846154,771.6117216117218,1041.575091575092,-0.810547,-0.010681,0.604431,4.740295,-3.379517,-0.508423,65.0,76.0,-11.0
865.6075808249723,47.09128482391179,,,,,,,39.112956280829046,39.252445396788616,0.054402579028976585,0.0451855519143585,869.2307692307692,57.02307692307691,0.0656017699115044,69.23076923076917,21.014492753623188,65.94202898550725,12.545454545454545,70.3125,,,0.061658114000156784,0.05538499303445478,0.0016643067313223956,1.1132639117928482,0.5194124953453506,0.4665672621228386,-2.8934466057791637,2021-10-14 15:56:16,2021-10-14 15:56:16.312,0.8403615274237709,1.255734266090133,0.512804135928562,0.7581527713383281,0.5244205616429694,0.2226445067980465,-0.1718050422098006,0.3229658739163557,0.8631503422239108,0.6919649525246782,0.6855595476000995,0.9247244788610604,1.0491035194451461,1.3609403581989228,0.7027152826798632,1.060593103502957,1.258632602264577,1.189747722714843,0.1466370616570718,1.303013028607509,846.5567765567764,970.6593406593408,822.7838827838829,782.8937728937732,730.1098901098901,-0.819153,-0.014221000000000001,0.590332,4.007568,-5.5776980000000025,-0.5906680000000001,44.0,56.99999999999999,-12.999999999999993
865.2731326644371,47.064160535183326,,,,,,,39.0632328895097,39.201683767839796,0.054392259228318564,0.04514555163549597,869.2307692307692,57.02307692307691,0.0656017699115044,69.23076923076917,21.014492753623188,65.94202898550725,12.545454545454545,78.125,,,0.06071702646705985,0.05533902458392888,0.0016825637620682527,1.0971828094832885,0.5156933990047796,0.4700159303877922,-2.8942769306563805,2021-10-14 15:56:17,2021-10-14 15:56:17.325,1.048582122044911,1.255734266090133,0.512804135928562,0.7797541313614492,0.6079258013214128,0.2226445067980465,-0.1718050422098006,0.4505646847471496,0.6848433808001898,0.6919649525246782,0.6855595476000995,0.6864756455613356,1.042638766953855,1.3609403581989228,0.7027152826798632,1.1091899447040459,1.304341960361242,1.189747722714843,0.1466370616570718,1.314224313960513,724.4688644688645,827.2161172161173,845.3479853479854,776.8498168498169,715.6043956043958,-0.816956,-0.020386,0.5881350000000001,3.72345,-5.158997,0.478516,35.0,43.0,-8.0
864.9386845039019,46.758329685923535,,,,,,,39.151586370522296,39.29198909267287,0.05405970448962225,0.04526515818052266,869.2307692307692,51.32076923076927,0.059041592920354026,69.23076923076917,21.014492753623188,65.94202898550725,12.545454545454545,78.125,,,0.05964293189476962,0.055521237162921455,0.0017038982502731075,1.0742363632811978,0.5103441279438797,0.4750761986729446,-2.8909896798380244,2021-10-14 15:56:18,2021-10-14 15:56:18.312,1.155562126669097,1.255734266090133,0.512804135928562,1.4451965808282543,0.5009205181104629,0.2226445067980465,-0.1718050422098006,0.9211922002769954,0.5858075783582776,0.6919649525246782,0.6855595476000995,0.9687072143407184,1.1125240243345578,1.3609403581989228,0.7027152826798632,0.8032001612258657,1.3276788911857558,1.189747722714843,0.1466370616570718,1.137769741923041,845.3479853479854,828.8278388278387,769.1941391941392,810.2930402930403,761.9413919413921,-0.822876,-0.027038999999999997,0.57782,3.8206480000000003,-4.844971,-0.26168800000000003,30.0,39.0,-9.0
864.938684503902,46.758329685923535,,,,,,,39.508490619028,39.6528356762315,0.05405970448962224,0.04567779349779999,869.2307692307692,51.32076923076927,0.059041592920354026,69.23076923076917,21.73913043478261,65.94202898550725,12.545454545454545,78.125,,,0.05873108745365741,0.055667974648414775,0.0017121488511522274,1.0550246856399659,0.5058175431252484,0.4794366899751025,-2.8883502588314247,2021-10-14 15:56:19,2021-10-14 15:56:19.312,0.6808137318416685,1.255734266090133,0.512804135928562,0.8979611659321124,0.3414119897318207,0.2226445067980465,-0.1718050422098006,0.4370123867712679,0.762156017541783,0.6919649525246782,0.6855595476000995,1.059831082429603,1.014494051254094,1.3609403581989228,0.7027152826798632,1.0725820351438422,0.7151431215355476,1.189747722714843,0.1466370616570718,0.9956036373449076,691.025641025641,796.5934065934067,856.2271062271063,770.8058608058608,588.6813186813188,-0.8227540000000001,-0.033507999999999996,0.573608,3.91037,-4.0898129999999995,-0.17944300000000002,29.0,39.0,-10.000000000000004
864.6827624929816,47.027503640024904,,,,,,,39.593083385881854,39.73844012113801,0.05438700258628853,0.04578914383782829,869.2307692307692,45.61846153846162,0.052481415929203634,69.23076923076917,21.897810218978105,66.42335766423358,12.454545454545455,78.125,,,0.05817457811064156,0.05640349748181071,0.0017281243634828837,1.0314001916175854,0.5001846688541293,0.4849569283768214,-2.875224110311952,2021-10-14 15:56:20,2021-10-14 15:56:20.320,0.3422490062675228,1.255734266090133,0.512804135928562,0.4278070509967489,0.4722266810024826,0.2226445067980465,-0.1718050422098006,0.1817570190347543,0.9145434780996456,0.6919649525246782,0.6855595476000995,0.8593044209846686,1.046895208216227,1.3609403581989228,0.7027152826798632,1.050132266624006,0.822846945141265,1.189747722714843,0.1466370616570718,0.9930257290367944,622.9304029304029,885.2380952380953,805.8608058608058,662.4175824175825,703.1135531135533,-0.8304440000000001,-0.05426,0.567383,4.934692,-3.379517,0.747681,26.0,42.0,-16.0
864.4581695676585,46.74518786609715,,,,,,,39.76851745861604,39.9151731689016,0.054074551565029265,0.0460039812898124,869.2307692307692,45.61846153846162,0.052481415929203634,69.23076923076917,21.897810218978105,66.42335766423358,12.454545454545455,78.125,,,0.05797348644137335,0.057137013051619424,0.001736814482219878,1.014639781554528,0.4961473607657898,0.4889886734045094,-2.862303157756225,2021-10-14 15:56:21,2021-10-14 15:56:21.315,0.3738352606536109,1.255734266090133,0.512804135928562,0.4093513802548324,0.5727203820990435,0.2226445067980465,-0.1718050422098006,0.2455038091863872,0.9145434780996456,0.6919649525246782,0.6855595476000995,0.8431082045958381,1.043394087982281,1.3609403581989228,0.7027152826798632,0.7593107544577374,0.8338468106263833,1.189747722714843,0.1466370616570718,1.0484657017178292,842.5274725274727,820.3663003663004,853.0036630036632,775.6410256410257,981.1355311355313,-0.836304,-0.045044,0.559387,4.299164,-4.209442,1.2710569999999999,39.0,45.0,-6.0
864.5143177989893,46.77418867340264,,,,,,,39.74115693424988,39.88742845149349,0.054104585326576665,0.0459693450022076,869.2307692307692,45.61846153846162,0.052481415929203634,69.23076923076917,21.897810218978105,65.69343065693431,12.454545454545455,78.125,,,0.05781405957298565,0.05778767304598915,0.0017341575739046467,1.0004566116890619,0.4927227251435989,0.492497844870793,-2.8509797951494282,2021-10-14 15:56:22,2021-10-14 15:56:22.311,0.3738352606536109,1.255734266090133,0.512804135928562,0.4093513802548324,0.5727203820990435,0.2226445067980465,-0.1718050422098006,0.2455038091863872,0.9145434780996456,0.6919649525246782,0.6855595476000995,0.8431082045958381,1.043394087982281,1.3609403581989228,0.7027152826798632,0.7593107544577374,0.8338468106263833,1.189747722714843,0.1466370616570718,1.0484657017178292,880.4029304029305,807.4725274725273,904.5787545787546,780.8791208791209,721.2454212454213,-0.845093,-0.046265,0.553528,3.611298,-5.52536,-0.38879400000000003,37.0,40.0,-3.0
864.8512071869736,46.91858539105182,,,,,,,39.74115693424988,39.88742845149349,0.054250471065028436,0.045951438356098835,869.2307692307692,57.02307692307691,0.0656017699115044,69.23076923076917,21.897810218978105,65.69343065693431,12.454545454545455,78.125,,,0.057856544091132014,0.0585993564768417,0.0017213274697191305,0.9873238815173124,0.4895743879918944,0.4958599676931949,-2.8370315640833303,2021-10-14 15:56:23,2021-10-14 15:56:23.316,1.030455758221403,1.255734266090133,0.512804135928562,0.8034200449913923,0.2474023594550422,0.2226445067980465,-0.1718050422098006,0.08595803278478957,1.000631567863524,0.6919649525246782,0.6855595476000995,0.6004979541121301,1.218222127660108,1.3609403581989228,0.7027152826798632,1.026869068903244,1.027992646030476,1.189747722714843,0.1466370616570718,0.9725309103419721,715.6043956043958,802.2344322344322,848.974358974359,810.6959706959708,707.5457875457878,-0.843201,-0.057555999999999996,0.5523680000000001,3.596344,-5.293579,-0.022430000000000002,34.0,35.0,-1.0
864.7389107243123,46.90788953615941,,,,,,,39.669931256247374,39.8133075399596,0.05424514723972463,0.04587503900225736,869.2307692307692,57.02307692307691,0.0656017699115044,69.23076923076917,21.16788321167883,65.69343065693431,12.454545454545455,78.125,,,0.057901918808495885,0.058971412025841136,0.001695867515570474,0.9818642087648064,0.4883386209428737,0.4973586129157391,-2.8307024944396915,2021-10-14 15:56:24,2021-10-14 15:56:24.311,1.0581177970118292,1.255734266090133,0.512804135928562,1.1259282750380109,0.2579150633536242,0.2226445067980465,-0.1718050422098006,0.355050534315613,1.179120972882467,0.6919649525246782,0.6855595476000995,0.9019601142602816,1.071798425495748,1.3609403581989228,0.7027152826798632,0.9789697569989892,1.013883657391711,1.189747722714843,0.1466370616570718,1.096525491165492,803.040293040293,755.8974358974359,767.1794871794873,797.8021978021977,957.3626373626372,-0.8474729999999999,-0.057007,0.5394899999999999,4.164581,-5.181426999999999,0.32150300000000004,29.0,30.0,-1.0000000000000036
863.7123745819398,46.61003383060861,,,,,,,39.22322702763682,39.36652058255945,0.05396476327338615,0.0454123712730432,865.3846153846155,51.32076923076927,0.05930400000000004,69.23076923076917,20.28985507246377,65.21739130434783,12.545454545454545,78.125,,,0.05785383817918471,0.058947646273775064,0.001655042342186084,0.9814444144298774,0.4883972183249548,0.497631053928475,-2.831105580297576,2021-10-14 15:56:25,2021-10-14 15:56:25.312,1.0718417756514529,1.255734266090133,0.512804135928562,1.2691104483465359,0.3825139232514976,0.2226445067980465,-0.1718050422098006,0.4014902513272304,1.108955277941657,0.6919649525246782,0.6855595476000995,0.8888816051596339,0.8104291485281704,1.3609403581989228,0.7027152826798632,0.6907811226577626,0.8744535550216035,1.189747722714843,0.1466370616570718,1.160501362443935,879.5970695970697,842.1245421245421,805.4578754578755,792.5641025641023,697.0695970695973,-0.8494870000000001,-0.05841100000000001,0.540283,3.9926150000000002,-4.9496459999999995,0.18692,17.0,33.0,-16.0
863.7123745819398,46.61003383060861,,,,,,,39.311220917314884,39.455482763280656,0.05396476327338615,0.04551424996815933,865.3846153846155,51.32076923076927,0.05930400000000004,69.23076923076917,20.28985507246377,65.94202898550725,12.545454545454545,78.125,,,0.05788718445291542,0.05873348665164571,0.0016068768534526886,0.9855908060805278,0.4896251800254955,0.4967834287868657,-2.834745243737629,2021-10-14 15:56:26,2021-10-14 15:56:26.312,0.8428930624605314,1.255734266090133,0.512804135928562,0.5773068524909546,0.4208015562968549,0.2226445067980465,-0.1718050422098006,0.1730549005056085,1.1127633944466249,0.6919649525246782,0.6855595476000995,0.334200093459658,0.8708957574287137,1.3609403581989228,0.7027152826798632,0.985592691676178,0.9815697627736788,1.189747722714843,0.1466370616570718,1.139366800925674,689.0109890109891,708.7545787545787,831.2454212454213,789.3406593406594,927.948717948718,-0.841125,-0.06329299999999999,0.544189,4.07486,-5.8992,0.007476999999999998,13.0,29.0,-15.999999999999995
863.6566332218506,46.61725170072116,,,,,,,39.316713996488936,39.46095576079362,0.05397660355692123,0.045523547766684616,865.3846153846155,51.32076923076927,0.05930400000000004,69.23076923076917,20.28985507246377,65.94202898550725,12.545454545454545,70.3125,,,0.05772970958399477,0.05785154892843014,0.0015300223184732608,0.9978939311618762,0.4929474699141331,0.4939878423152452,-2.8498750507928525,2021-10-14 15:56:27,2021-10-14 15:56:27.312,0.8428930624605314,1.255734266090133,0.512804135928562,0.5773068524909546,0.4208015562968549,0.2226445067980465,-0.1718050422098006,0.1730549005056085,1.1127633944466249,0.6919649525246782,0.6855595476000995,0.334200093459658,0.8708957574287137,1.3609403581989228,0.7027152826798632,0.985592691676178,0.9815697627736788,1.189747722714843,0.1466370616570718,1.139366800925674,716.007326007326,826.8131868131868,764.3589743589743,797.8021978021977,836.4835164835165,-0.852356,-0.07006799999999999,0.546021,3.955231,-4.388885,0.88974,12.0,28.000000000000004,-16.000000000000004
863.4336677814938,46.70096448646115,,,,,,,39.278246309875975,39.41980919419984,0.054087495344552164,0.045490751375027436,865.3846153846155,51.32076923076927,0.05930400000000004,69.23076923076917,20.28985507246377,65.94202898550725,12.545454545454545,70.3125,,,0.05755952425484585,0.056837036743140286,0.0014644285150620972,1.0127115619164075,0.496798141434512,0.49056232802792793,-2.867567110413768,2021-10-14 15:56:28,2021-10-14 15:56:28.312,0.4879474627322747,1.255734266090133,0.512804135928562,0.4989623645723311,0.2760307940570583,0.2226445067980465,-0.1718050422098006,0.3190706380865437,0.4810336345821126,0.6919649525246782,0.6855595476000995,0.5378352709769864,1.159256840917666,1.3609403581989228,0.7027152826798632,1.209074044994896,0.6189073651537246,1.189747722714843,0.1466370616570718,0.7001209267302954,864.2857142857142,769.5970695970697,737.3626373626372,834.4688644688645,676.5201465201467,-0.856506,-0.067322,0.528076,4.015045,-5.368347,0.72525,13.0,28.000000000000004,-15.000000000000005
862.829870859068,46.721335314491746,,,,,,,39.350584491541746,39.495691298882214,0.054148954379586,0.045606423491531115,861.5384615384614,57.02307692307691,0.06618749999999997,69.23076923076917,20.437956204379567,65.69343065693431,12.454545454545455,78.125,,,0.05758558233478825,0.055583744757549715,0.0013917346437240534,1.0360148022766429,0.5026627849125566,0.4851888059977086,-2.8898644809469807,2021-10-14 15:56:29,2021-10-14 15:56:29.321,0.4879474627322747,1.255734266090133,0.512804135928562,0.4989623645723311,0.2760307940570583,0.2226445067980465,-0.1718050422098006,0.3190706380865437,0.4810336345821126,0.6919649525246782,0.6855595476000995,0.5378352709769864,1.159256840917666,1.3609403581989228,0.7027152826798632,1.209074044994896,0.6189073651537246,1.189747722714843,0.1466370616570718,0.7001209267302954,770.4029304029305,754.2857142857142,793.3699633699632,805.4578754578755,840.9157509157509,-0.86377,-0.071899,0.524597,4.015045,-5.7197569999999995,-0.171967,17.0,26.0,-9.0
863.1106120157215,46.87538083039533,,,,,,,39.61505513196025,39.75822400416353,0.05430981866961624,0.04589800493756258,861.5384615384614,57.02307692307691,0.06618749999999997,69.23076923076917,21.16788321167883,65.69343065693431,12.454545454545455,78.125,,,0.05772351275308084,0.05455127653332074,0.0013404263727456547,1.058151457149173,0.5080614635829676,0.4801405887128533,-2.9086141658160765,2021-10-14 15:56:30,2021-10-14 15:56:30.312,0.4879474627322747,1.255734266090133,0.512804135928562,0.4989623645723311,0.2760307940570583,0.2226445067980465,-0.1718050422098006,0.3190706380865437,0.4810336345821126,0.6919649525246782,0.6855595476000995,0.5378352709769864,1.159256840917666,1.3609403581989228,0.7027152826798632,1.209074044994896,0.6189073651537246,1.189747722714843,0.1466370616570718,0.7001209267302954,691.4285714285713,739.3772893772892,784.1025641025641,789.3406593406594,831.2454212454213,-0.860474,-0.0755,0.519775,3.701019,-4.994507,-0.059814,20.0,16.0,4.0
863.3779264214047,46.69858530696896,,,,,,,39.4702098384516,39.613091001160385,0.05408823167454471,0.04571602843965534,861.5384615384614,57.02307692307691,0.06618749999999997,69.23076923076917,21.014492753623188,65.94202898550725,13.8,70.3125,,,0.057905835503007624,0.05346919230766212,0.0012964466119425035,1.0829756913068187,0.5139351890063346,0.4745583794093963,-2.9286496356590184,2021-10-14 15:56:31,2021-10-14 15:56:31.312,0.4510956275833495,1.255734266090133,0.512804135928562,0.6827872825328916,0.2582534446254853,0.2226445067980465,-0.1718050422098006,0.2332784404425818,0.8582526429363496,0.6919649525246782,0.6855595476000995,0.9065767501006712,1.061816626281473,1.3609403581989228,0.7027152826798632,1.129913570760772,0.6428627639968516,1.189747722714843,0.1466370616570718,0.8316424966648184,680.5494505494506,809.8901098901099,843.7362637362637,733.3333333333335,609.2307692307693,-0.865967,-0.083801,0.514282,4.508514,-4.26178,0.49346899999999994,19.0,10.0,9.0
863.7123745819397,46.4057241828246,,,,,,,39.426414862591855,39.570738287907645,0.053728215026774655,0.045647620692797534,861.5384615384614,57.02307692307691,0.06618749999999997,69.23076923076917,21.014492753623188,65.21739130434783,13.8,78.125,,,0.05826030166793369,0.05217374952651087,0.001256731565070926,1.1166592816629,0.5216213928178439,0.4671267246720584,-2.953175793215314,2021-10-14 15:56:32,2021-10-14 15:56:32.312,0.4305948071192267,1.255734266090133,0.512804135928562,0.7342688140866735,0.3017954725506736,0.2226445067980465,-0.1718050422098006,0.1966478350628028,0.7371069572636962,0.6919649525246782,0.6855595476000995,0.8714768678600222,1.085366997127944,1.3609403581989228,0.7027152826798632,1.140301825525696,0.6184883809431765,1.189747722714843,0.1466370616570718,0.8792441958967353,852.6007326007326,788.1318681318681,795.3846153846154,778.4615384615387,691.025641025641,-0.8598629999999999,-0.08374,0.520691,3.872986,-6.130980999999999,0.8374020000000001,19.0,7.000000000000001,12.0
863.9910813823857,46.27520547705779,,,,,,,39.00237376866375,39.14485319564383,0.05355981846828496,0.04514210228450501,861.5384615384614,57.02307692307691,0.06618749999999997,69.23076923076917,20.28985507246377,64.4927536231884,13.8,78.125,,,0.058744100229278076,0.051332641912910384,0.0012407480892615392,1.1443810028118515,0.5277167146612634,0.4611372553062431,-2.9694284345563466,2021-10-14 15:56:33,2021-10-14 15:56:33.312,0.1037164486639346,1.255734266090133,-0.1162006432278381,0.2468798261608624,-0.1317634834594382,0.2226445067980465,0.1141751319049174,0.1539458660234026,0.3703630405887077,0.6919649525246782,0.8214411934375381,0.6116914403104035,0.8711160930155251,1.3609403581989228,1.509944847676505,0.9682771617327104,0.6322845807447134,1.189747722714843,1.5893654316291699,0.7981326120818486,701.098901098901,809.8901098901099,823.1868131868132,769.1941391941392,902.9670329670328,-0.86261,-0.090027,0.532288,3.753357,-4.6804809999999994,1.667328,17.0,9.0,8.0
863.6566332218506,46.23582571386459,,,,,,,38.935873509262045,39.07469437849792,0.053534962779574716,0.04508258492036667,861.5384615384614,57.02307692307691,0.06618749999999997,69.23076923076917,20.28985507246377,63.76811594202898,13.8,78.125,,,0.059556123084052864,0.05084214373032732,0.001243252484201438,1.1713928389791255,0.5334585507097225,0.4554053370982139,-2.979029667335705,2021-10-14 15:56:34,2021-10-14 15:56:34.312,-0.1159532612492022,1.255734266090133,0.1211360945404965,0.207876931787178,0.1081662124062059,0.2226445067980465,-0.1343271651901189,0.2308269496488427,0.6736389088900103,0.6919649525246782,0.9123499096648752,0.7497603721335576,0.951334441501508,1.3609403581989228,1.4583541519671517,1.0042256204485351,0.6233550658857546,1.189747722714843,1.4637405581136331,0.6426725746491545,689.8168498168499,807.8754578754579,776.4468864468864,782.4908424908424,607.2161172161173,-0.856323,-0.081177,0.51886,4.142151,-5.981445,0.620575,15.0,14.000000000000002,0.9999999999999982
861.5942028985507,46.993084591302825,,,,,,,39.64490595004851,39.765442835154055,0.054542015757777874,0.046013431632520564,861.5384615384614,57.02307692307691,0.06618749999999997,69.23076923076917,21.014492753623188,65.21739130434783,13.8,109.375,,,0.06100690626352996,0.0506908853015674,0.0012740640945235696,1.2035083999932348,0.5400186259429162,0.4487036616827534,-2.9820091616362383,2021-10-14 15:56:35,2021-10-14 15:56:35.322,0.1603681558155159,1.255734266090133,0.3363230610281889,0.1333927944363587,0.1981831643177285,0.2226445067980465,-0.08750699533772274,0.2395247268986591,0.8828208358761482,0.6919649525246782,1.117118252841075,0.960556839525848,0.9028484313033898,1.3609403581989228,1.455724309911667,1.004542001054474,0.6801100028950015,1.189747722714843,1.4304462840975067,0.6772747071088504,895.7142857142858,786.5201465201468,777.2527472527472,808.6813186813188,1088.717948717949,-0.8616940000000001,-0.079468,0.527161,3.977661,-4.28421,1.128998,14.000000000000002,15.0,-0.9999999999999982
861.8705035971221,46.19907207798765,,,,,,,39.6364579034134,39.765115277969066,0.053603263930219386,0.04598887853567999,861.5384615384614,57.02307692307691,0.06618749999999997,69.23076923076917,20.863309352517987,65.46762589928058,13.9,78.125,,,0.06202029281645453,0.050759330234964865,0.0013049397406464116,1.22185010183079,0.5436343997697104,0.4449272451302676,-2.980659830963647,2021-10-14 15:56:36,2021-10-14 15:56:36.311,0.250181216743669,1.255734266090133,0.6137786563462074,0.1580444029866593,0.124757800751614,0.2226445067980465,0.1817077551885251,0.02383364255556359,0.8689188965689907,0.6919649525246782,0.9718665209519504,0.9665463640808064,0.8756648206911685,1.3609403581989228,1.4397475553673318,0.932102144249616,0.6165889655889474,1.189747722714843,1.330624755505958,0.7390272520144938,772.8205128205127,828.021978021978,810.6959706959708,789.7435897435898,895.7142857142858,-0.860657,-0.079224,0.515991,4.157104,-5.286102,0.56076,10.0,20.0,-10.0
861.761426978818,44.82402019269895,,,,,,,38.47837924398229,38.61942031357596,0.0520144192921746,0.044650848876910884,861.5384615384614,51.32076923076927,0.05956875000000004,69.23076923076917,19.565217391304348,65.21739130434783,12.545454545454545,140.625,,,0.06394189884652211,0.05114700824210251,0.0013746817657956465,1.250159120624523,0.5490290954922368,0.4391673719245968,-2.9730512781855714,2021-10-14 15:56:37,2021-10-14 15:56:37.312,0.3531993585040233,1.255734266090133,0.500737477703098,0.2762427237164216,0.06322093180774832,0.2226445067980465,0.1362331074008583,0.1439765395227168,0.6575418480119212,0.6919649525246782,0.830756671660134,0.9191825064020086,0.8064510271280981,1.3609403581989228,1.462623754715851,0.8971869379181255,0.6465776143446605,1.189747722714843,1.3546520381128475,0.7805239039356571,672.0879120879122,792.5641025641023,797.8021978021977,762.7472527472528,760.7326007326008,-0.864014,-0.079163,0.521423,3.656158,-6.400146,1.069183,9.0,23.0,-14.0
861.7056856187289,44.819446507238084,,,,,,,38.43907260771654,38.57976346991965,0.05201247624942437,0.04460812229655442,861.5384615384614,51.32076923076927,0.05956875000000004,69.23076923076917,19.565217391304348,65.21739130434783,12.545454545454545,140.625,,,0.06611069094182427,0.051836762309372925,0.00146386198238294,1.275363043456717,0.5536384120089904,0.4341025991379056,-2.959655684340452,2021-10-14 15:56:38,2021-10-14 15:56:38.317,0.8799998478737001,1.255734266090133,0.1558130645402994,0.416893475377599,0.2607570194058563,0.2226445067980465,0.2565642235444504,0.2203020879937889,0.5220032549014533,0.6919649525246782,0.9160740809607028,0.8726295230751577,0.660270597502671,1.3609403581989228,1.416154720466223,0.8983551763980495,0.6178166270206705,1.189747722714843,1.290844692737634,0.7599273015989542,888.8644688644687,780.8791208791209,779.6703296703297,776.8498168498169,1120.952380952381,-0.848389,-0.092041,0.528076,4.007568,-4.957123,0.089722,11.0,23.0,-12.0
861.9843924191749,44.79342697342266,,,,,,,38.46153846153847,38.601653819788226,0.05196547335121588,0.044619762027935855,861.5384615384614,51.32076923076927,0.05956875000000004,69.23076923076917,19.565217391304348,65.21739130434783,12.545454545454545,140.625,,,0.06805930861239544,0.05262822926403108,0.0015477965963112575,1.293209168618386,0.5567891551650701,0.43054841295312013,-2.9445026251752138,2021-10-14 15:56:39,2021-10-14 15:56:39.311,1.005805816331043,0.63569058137451,0.961915099492162,0.5490674057571661,0.3613939624419156,0.4453143441752226,0.4398262203657781,0.2048866856992949,0.4880896428420455,0.558663212383304,0.9543087516974365,0.7971068590989241,0.6796206564950475,1.372302756346421,1.23744969790997,0.9008300961037652,0.5118939054790431,1.0735022814436128,0.9377819036150096,0.7173453696705853,735.3479853479854,770.0,800.6227106227108,701.5018315018315,884.8351648351648,-0.855225,-0.09197999999999999,0.52594,4.157104,-4.553375,0.47103900000000004,13.0,23.0,-10.0
862.5418060200667,44.976813319879426,,,,,,,38.51203871615179,38.65188884464592,0.052144502453059134,0.044649474897748696,861.5384615384614,57.02307692307691,0.06618749999999997,69.23076923076917,19.565217391304348,65.21739130434783,12.545454545454545,140.625,,,0.06844074563865099,0.052286032793745114,0.0015992225126155838,1.3089680356632156,0.5594946708788155,0.42743188193693066,-2.951026002970989,2021-10-14 15:56:40,2021-10-14 15:56:40.311,0.962163623765142,0.8900575303668031,0.8602051087538133,1.194162928330366,0.7613486900140829,0.4738370435620306,0.539001911254686,0.9032029674765858,0.5464642249226104,0.6464578211439236,0.9649261266083732,1.0289771517520307,0.7123881428982134,1.238690000966753,1.2940258446602189,0.8244238744571498,0.2657875363522065,0.9795607753330322,0.9687015037844589,0.2460205007761481,735.7509157509156,768.3882783882782,791.3553113553114,782.4908424908424,761.1355311355313,-0.862793,-0.087463,0.517151,4.104767,-3.4916690000000004,0.5233760000000001,15.0,22.0,-7.0
862.7090301003343,45.044713278813646,,,,,,,38.55687230376153,38.69770935819546,0.05221310048600613,0.044692788597886016,861.5384615384614,57.02307692307691,0.06618749999999997,69.23076923076917,19.565217391304348,65.94202898550725,12.545454545454545,140.625,,,0.06306972820215807,0.04753428608096162,0.0015197314101758628,1.3268260323661134,0.5625010813916229,0.4239448636597229,-3.0463040160919284,2021-10-14 15:56:41,2021-10-14 15:56:41.311,1.491733220778076,1.072441403158513,1.060423189556054,1.67191610068873,1.004612543363032,0.4550119004489048,0.4176523580603251,1.1022173060003322,0.7376514275077142,0.5845267777135232,0.6302755330205649,0.6408097817745526,0.9004632712609071,1.084231721818107,1.5061440594258961,0.7550244079094491,0.8697557123684663,0.9060527151272794,1.14868414109556,1.0983639934702378,905.3846153846154,808.2783882783882,764.7619047619047,818.7545787545787,1038.351648351648,-0.876282,-0.08038300000000001,0.485046,4.269257,-4.598236,0.9420780000000001,21.0,24.0,-3.0
863.1667602470523,44.809130896976214,,,,,,,38.37660305026605,38.51508757576091,0.051912484308537454,0.044460242003853394,861.5384615384614,57.02307692307691,0.06618749999999997,69.23076923076917,18.97810218978102,66.42335766423358,12.454545454545455,140.625,,,0.05956024146347552,0.04442262357899082,0.0014636678701431007,1.3407637069784386,0.564838310168406,0.4212810260514379,-3.1140063992480567,2021-10-14 15:56:42,2021-10-14 15:56:42.311,1.187196155480376,1.072441403158513,1.060423189556054,1.305442459944782,0.7734117300617663,0.4550119004489048,0.4176523580603251,0.8251786796849252,0.7991375467740248,0.5845267777135232,0.6302755330205649,0.7979822101319851,1.019949097738668,1.084231721818107,1.5061440594258961,1.0887542356001851,0.9468602339424178,0.9060527151272794,1.14868414109556,1.1744417744322881,876.3736263736264,811.5018315018315,805.054945054945,791.7582417582418,868.7179487179487,-0.8818360000000001,-0.07074,0.483154,3.9328,-5.52536,0.209351,20.0,24.0,-4.0
864.0089837170129,44.40438390046649,,,,,,,38.37660305026605,38.51508757576091,0.05139342846811203,0.04441690280252393,861.5384615384614,57.02307692307691,0.06618749999999997,69.23076923076917,18.97810218978102,66.42335766423358,12.454545454545455,164.0625,,,0.05664497429273885,0.04181365031404751,0.0014125667498218481,1.3547005312212284,0.5671803202034277,0.4186757937506151,-3.1745324302243443,2021-10-14 15:56:43,2021-10-14 15:56:43.312,0.3095462288450338,1.072441403158513,1.060423189556054,0.5700163337371303,0.3177349787567167,0.4550119004489048,0.4176523580603251,0.4076438501249282,0.6962610955974926,0.5845267777135232,0.6302755330205649,0.6951352118064134,0.9838177029386064,1.084231721818107,1.5061440594258961,1.030578218500735,0.7384463747882836,0.9060527151272794,1.14868414109556,0.937606705034854,791.7582417582418,767.9853479853481,814.3223443223442,778.4615384615387,711.1721611721613,-0.87915,-0.077637,0.496277,4.42627,-4.702911,0.785065,19.0,25.0,-6.0
864.3255295429209,44.31038684357612,,,,,,,38.57367146466482,38.71518568308312,0.05126585450623988,0.044628638338455234,861.5384615384614,57.02307692307691,0.06618749999999997,69.23076923076917,19.565217391304348,66.66666666666666,11.5,164.0625,,,0.05378102218328938,0.03912495642362534,0.001352112058909838,1.3745963471748197,0.5705719456376485,0.4150832692159655,-3.2409947438955937,2021-10-14 15:56:44,2021-10-14 15:56:44.315,0.3899765612351099,1.072441403158513,1.060423189556054,0.4870731585538974,0.1796662508616761,0.4550119004489048,0.4176523580603251,0.028751670718764687,0.6355861053115169,0.5845267777135232,0.6302755330205649,0.8638883088056282,0.9731709068006978,1.084231721818107,1.5061440594258961,1.0792074658021529,0.7038344270107565,0.9060527151272794,1.14868414109556,0.8035231016160486,836.4835164835165,819.5604395604396,825.6043956043958,781.2820512820513,1249.084249084249,-0.88092,-0.077942,0.486206,3.74588,-5.158997,0.478516,18.0,29.0,-10.999999999999995
864.2140468227425,44.375744867322865,,,,,,,38.55687230376153,38.69836588863153,0.051348094873566334,0.04461495672919775,861.5384615384614,57.02307692307691,0.06618749999999997,69.23076923076917,19.565217391304348,66.66666666666666,11.5,164.0625,,,0.05208435102480174,0.03737660382116857,0.001306938356864501,1.393501434052264,0.5738191026248813,0.41178221177443,-3.2867103365887904,2021-10-14 15:56:45,2021-10-14 15:56:45.312,0.7225602108810291,1.072441403158513,1.060423189556054,0.5580858340008663,0.1892711333396938,0.4550119004489048,0.4176523580603251,-0.0333108644164873,0.7477123488943231,0.5845267777135232,0.6302755330205649,0.7705141430071948,0.9803034849844798,1.084231721818107,1.5061440594258961,1.1212727766822528,0.7834739702103625,0.9060527151272794,1.14868414109556,0.8335330033713781,907.8021978021976,712.7838827838829,788.1318681318681,800.2197802197803,880.4029304029305,-0.886475,-0.08075,0.473206,4.396362,-4.732819,0.620575,20.0,32.0,-12.0
864.6042363433669,44.31621368896744,,,,,,,38.691061360101855,38.8271587059915,0.051256068182585,0.044750025195037534,865.3846153846155,51.3207692307691,0.059303999999999836,69.23076923076917,20.28985507246377,66.66666666666666,11.5,164.0625,,,0.050846330093768086,0.03592026837014129,0.0012640370402301911,1.4155331349371008,0.5775981259544251,0.4080428155997144,-3.326453564246948,2021-10-14 15:56:46,2021-10-14 15:56:46.312,1.2185720069150958,1.072441403158513,1.060423189556054,0.9915732032139236,0.7986436151191191,0.4550119004489048,0.4176523580603251,0.6681569310292063,1.037326068804895,0.5845267777135232,0.6302755330205649,1.0942829311476792,0.9219834278387656,1.084231721818107,1.5061440594258961,0.9738024381425368,1.060379513239641,0.9060527151272794,1.14868414109556,1.103606134833683,819.96336996337,827.2161172161173,856.2271062271063,755.0915750915751,759.5238095238095,-0.888,-0.080078,0.46002200000000004,4.022522,-4.418793,0.844879,27.0,35.0,-8.0
865.7495788882651,43.38379306407254,,,,,,,38.585772208368674,38.72775306295114,0.050111249398218566,0.04456920701932978,869.2307692307692,45.61846153846162,0.052481415929203634,69.23076923076917,19.708029197080293,67.15328467153284,11.416666666666664,164.0625,,,0.05002657786121835,0.034707892216614994,0.0012230621654742155,1.4413602977961926,0.5819917877541592,0.4037795328787753,-3.3607881764891894,2021-10-14 15:56:47,2021-10-14 15:56:47.320,1.178018559168365,1.072441403158513,1.060423189556054,1.3456706396304208,0.8129211642052675,0.4550119004489048,0.4176523580603251,0.7273969808290405,1.049770286927442,0.5845267777135232,0.6302755330205649,1.069136157387379,1.069603202231022,1.084231721818107,1.5061440594258961,1.1161570819841842,1.220950070679062,0.9060527151272794,1.14868414109556,1.335982289793072,782.4908424908424,780.4761904761905,760.3296703296703,796.9963369963368,1045.201465201465,-0.8937379999999999,-0.084412,0.450928,4.246826,-6.445007,0.747681,31.0,38.0,-7.0
865.7495788882651,43.38379306407254,,,,,,,38.47284901566079,38.6135758200995,0.05011124939821855,0.044438773005312834,869.2307692307692,45.61846153846162,0.052481415929203634,69.23076923076917,19.708029197080293,67.15328467153284,11.416666666666664,164.0625,,,0.049582797041268944,0.03348613046106907,0.0011743214906392988,1.4806965259516576,0.5885670084424481,0.3974933405507726,-3.3966239419669297,2021-10-14 15:56:48,2021-10-14 15:56:48.311,0.5797788567606411,1.072441403158513,1.060423189556054,0.4369935795799004,0.3238984778196834,0.4550119004489048,0.4176523580603251,0.2387017625147547,0.9322054611991702,0.5845267777135232,0.6302755330205649,0.6899785990555941,1.025645442096168,1.084231721818107,1.5061440594258961,1.004694360996704,1.0047125907935621,0.9060527151272794,1.14868414109556,1.0957469219506362,887.2527472527472,780.8791208791209,763.5531135531136,811.9047619047618,819.5604395604396,-0.896545,-0.081665,0.45098900000000003,4.3365480000000005,-4.8823550000000004,0.485992,37.0,39.0,-2.0
865.6372824256035,43.374568560177174,,,,,,,38.51240979630892,38.65374297428129,0.050107093861111465,0.04449023924708191,861.5384615384614,45.61846153846162,0.0529500000000001,69.23076923076917,19.708029197080293,67.15328467153284,11.416666666666664,164.0625,,,0.04961453842565222,0.03267048101257585,0.001136018884688301,1.5186350763110616,0.5947485121630611,0.3916335935080423,-3.42128333010516,2021-10-14 15:56:49,2021-10-14 15:56:49.317,0.4964303824057743,1.072441403158513,1.060423189556054,0.4708599936018361,0.1790942797893322,0.4550119004489048,0.4176523580603251,0.3209434343271122,1.092718058810251,0.5845267777135232,0.6302755330205649,1.018356055168745,1.073955882741755,1.084231721818107,1.5061440594258961,0.979890732289838,0.8917639621066527,0.9060527151272794,1.14868414109556,1.0660075506964821,732.1245421245421,745.8241758241759,792.1611721611722,783.2967032967032,724.0659340659341,-0.894165,-0.084656,0.452759,3.8804629999999998,-5.330963,0.149536,42.0,38.0,4.0
865.7748049052395,43.32598711983994,,,,,,,38.39410146320794,38.533967539071284,0.050043021435097125,0.044346522035150035,865.3846153846155,51.3207692307691,0.059303999999999836,67.30769230769226,19.565217391304348,67.3913043478261,12.545454545454545,101.5625,,,0.049933283030036836,0.03195986669123422,0.0010984443429418813,1.562374571597705,0.601666754242629,0.3850976361112665,-3.443274329205584,2021-10-14 15:56:50,2021-10-14 15:56:50.311,0.6427509471032846,1.072441403158513,1.060423189556054,0.7398210175831857,0.3554650239322939,0.4550119004489048,0.4176523580603251,0.2753989464392679,1.057306289342351,0.5845267777135232,0.6302755330205649,0.8538257221787366,1.117118811173902,1.084231721818107,1.5061440594258961,1.028700797675322,0.8195222590270218,0.9060527151272794,1.14868414109556,0.9268163745225532,697.8754578754579,794.5787545787546,805.4578754578755,780.8791208791209,1215.641025641026,-0.895691,-0.09411599999999999,0.452087,4.209442,-5.6300349999999995,0.4187010000000001,44.0,37.0,7.0
866.2207357859533,43.279730164002714,,,,,,,38.43907260771653,38.57811707687877,0.0499638583746595,0.04437560891778858,869.2307692307692,45.61846153846162,0.052481415929203634,61.53846153846154,19.565217391304348,68.11594202898551,12.545454545454545,101.5625,,,0.05064925279178989,0.03115479264235245,0.001051857205136476,1.625729093216184,0.6112932353449374,0.3760117462963121,-3.4687871886860835,2021-10-14 15:56:51,2021-10-14 15:56:51.312,0.7172254060021682,1.072441403158513,1.060423189556054,0.4532853507181789,0.4709852196368514,0.4550119004489048,0.4176523580603251,0.35037339728016,1.234657886419617,0.5845267777135232,0.6302755330205649,1.00753607153312,0.9117956359622552,1.084231721818107,1.5061440594258961,0.942329866914848,0.6158226184081074,0.9060527151272794,1.14868414109556,0.7155631579154305,779.2673992673992,866.7032967032968,808.6813186813188,796.1904761904763,761.9413919413921,-0.9017940000000001,-0.095398,0.445679,4.052429,-5.345917,0.26168800000000003,43.0,36.0,7.0
866.7602470522179,43.752920508849776,,,,,,,38.50676074460323,38.647614239410274,0.05047868849275211,0.044426080770964785,869.2307692307692,45.61846153846162,0.052481415929203634,61.53846153846154,18.97810218978102,68.61313868613139,12.454545454545455,101.5625,,,0.051435147466098084,0.03054815592165433,0.0010149302085291848,1.6837398498950902,0.6197137606119176,0.3680579043434356,-3.4884509578164025,2021-10-14 15:56:52,2021-10-14 15:56:52.312,0.6798032857859572,1.072441403158513,1.060423189556054,0.5166180476224789,0.3582624150343274,0.4550119004489048,0.4176523580603251,0.37799819626424497,1.285880035406597,0.5845267777135232,0.6302755330205649,1.2673370760518101,0.9543908326872442,1.084231721818107,1.5061440594258961,0.9696563911086136,0.5394458135209915,0.9060527151272794,1.14868414109556,0.6682078122841327,877.9853479853481,729.3040293040292,821.5750915750915,804.2490842490844,682.5641025641024,-0.8954469999999999,-0.099243,0.443726,4.172058,-6.003876,-0.463562,45.0,33.0,12.0
867.0409882088713,44.040500704725325,,,,,,,38.30851913552804,38.445069374954684,0.05079402393156055,0.04418305438439026,869.2307692307692,45.61846153846162,0.052481415929203634,61.53846153846154,18.97810218978102,67.88321167883211,12.454545454545455,101.5625,,,0.05262597427984282,0.02982347195393785,0.0009711354360350839,1.7645824188787702,0.6308512027420278,0.35750736037757624,-3.5124595460428263,2021-10-14 15:56:53,2021-10-14 15:56:53.312,0.5039666922168486,1.072441403158513,1.060423189556054,0.47168350919192203,0.28744631575788204,0.4550119004489048,0.4176523580603251,0.2868251495595446,1.2000851410069642,0.5845267777135232,0.6302755330205649,1.273314015651144,1.042888768208298,1.084231721818107,1.5061440594258961,0.9687097540899742,0.6918117948251911,0.9060527151272794,1.14868414109556,0.6225273676210098,715.2014652014653,664.0293040293043,814.7252747252749,778.4615384615387,987.5824175824176,-0.8920899999999999,-0.10809300000000001,0.452087,3.8505550000000004,-4.61319,0.456085,47.0,35.0,12.0
867.1532846715329,44.006451145940005,,,,,,,38.71522669803889,38.858310399676526,0.05074818019355034,0.04464634728645898,869.2307692307692,45.61846153846162,0.052481415929203634,61.53846153846154,19.708029197080293,67.88321167883211,11.416666666666664,101.5625,,,0.053673302094572384,0.029238983433172036,0.0009383058122161989,1.8356760664147875,0.6401064230657767,0.3487033659026521,-3.5322524110123075,2021-10-14 15:56:54,2021-10-14 15:56:54.311,0.5518524635855131,1.072441403158513,1.060423189556054,0.4883219921991669,0.4766062834632004,0.4550119004489048,0.4176523580603251,0.3328863559849337,0.7835018884314888,0.5845267777135232,0.6302755330205649,0.8834356540796416,1.08857820386102,1.084231721818107,1.5061440594258961,0.8576065330988821,0.5824232596785225,0.9060527151272794,1.14868414109556,0.5120949595681353,876.7765567765567,854.6153846153846,792.5641025641023,800.2197802197803,687.8021978021977,-0.9047850000000001,-0.099731,0.431091,4.560852,-3.798218,0.792542,50.0,38.0,12.0
866.9848399775406,44.042591874336864,,,,,,,38.59704635680746,38.73707238007121,0.0507997254894074,0.04451870964411249,869.2307692307692,45.61846153846162,0.052481415929203634,61.53846153846154,19.708029197080293,67.15328467153284,11.416666666666664,101.5625,,,0.054736809520966434,0.02862924970265685,0.0009067568457627704,1.9119191068387216,0.6495191696916697,0.3397210516744207,-3.553326366898824,2021-10-14 15:56:55,2021-10-14 15:56:55.313,0.6713208869282834,1.072441403158513,1.060423189556054,0.6445570135549054,0.5632607108106009,0.4550119004489048,0.4176523580603251,0.5147317418930164,0.7016562831674561,0.5845267777135232,0.6302755330205649,0.7654403642542545,1.038542290075213,1.084231721818107,1.5061440594258961,0.7672587707359727,0.5822926245875617,0.9060527151272794,1.14868414109556,0.4947638090409739,879.5970695970697,822.7838827838829,831.6483516483516,781.6849816849817,765.1648351648352,-0.9031370000000001,-0.102539,0.4211430000000001,4.067383,-6.564636,0.16449,53.0,42.0,11.0
866.7040988208871,43.90356534488118,,,,,,,38.50676074460323,38.64911524393185,0.0506557721425456,0.04442895885341951,869.2307692307692,45.61846153846162,0.052481415929203634,61.53846153846154,19.708029197080293,67.15328467153284,11.416666666666664,101.5625,,,0.055983806020838016,0.02780192532343685,0.0008692487005973247,2.0136665130038316,0.6613173376352255,0.3284145281080945,-3.582650004444913,2021-10-14 15:56:56,2021-10-14 15:56:56.312,0.6713208869282834,1.072441403158513,1.060423189556054,0.6445570135549054,0.5632607108106009,0.4550119004489048,0.4176523580603251,0.5147317418930164,0.7016562831674561,0.5845267777135232,0.6302755330205649,0.7654403642542545,1.038542290075213,1.084231721818107,1.5061440594258961,0.7672587707359727,0.5822926245875617,0.9060527151272794,1.14868414109556,0.4947638090409739,823.1868131868132,806.2637362637363,806.6666666666667,796.1904761904763,1163.2600732600729,-0.897156,-0.10876500000000001,0.445618,4.381409,-5.87677,-0.5233760000000001,55.00000000000001,48.0,7.000000000000008
866.2764771460422,43.883151385049715,,,,,,,37.75316221002637,37.89019773212006,0.05065721226740828,0.04358096197463954,861.5384615384614,51.32076923076927,0.05956875000000004,67.30769230769226,18.84057971014493,66.66666666666666,11.5,101.5625,,,0.05683930752689105,0.02706918803093257,0.0008408824078016871,2.099778813532918,0.6706752178162926,0.3194027930436485,-3.6093591709689767,2021-10-14 15:56:57,2021-10-14 15:56:57.311,0.908375496505876,1.072441403158513,1.060423189556054,0.7232299460191719,0.3843380958759842,0.4550119004489048,0.4176523580603251,0.2997190031426903,1.0344364642516142,0.5845267777135232,0.6302755330205649,1.113883747717866,0.9588614392434708,1.084231721818107,1.5061440594258961,1.086929383530641,0.9352989652601952,0.9060527151272794,1.14868414109556,0.8099399583476201,707.1428571428571,812.7106227106227,848.5714285714287,778.8644688644687,748.2417582417582,-0.879883,-0.11456300000000001,0.47595200000000004,4.658051,-3.858032,1.001892,56.99999999999999,49.0,7.999999999999992
867.0568561872909,43.37497284972431,,,,,,,38.11182957532176,38.24234863967672,0.050025523170945295,0.04395539843016858,865.3846153846155,51.3207692307691,0.059303999999999836,61.53846153846154,19.565217391304348,67.3913043478261,11.5,101.5625,,,0.057529825131927365,0.02626824150367646,0.0008139799994510478,2.190090460523426,0.6799247556327598,0.31045510123369946,-3.639394616859963,2021-10-14 15:56:58,2021-10-14 15:56:58.316,0.8889401195715412,1.072441403158513,1.060423189556054,0.5077493292649501,0.4079422122452106,0.4550119004489048,0.4176523580603251,0.5123119967374483,1.015526939035476,0.5845267777135232,0.6302755330205649,1.104125089342893,0.7753075487609893,1.084231721818107,1.5061440594258961,0.9331927725603872,0.8004040960855298,0.9060527151272794,1.14868414109556,0.7505180910810945,879.1941391941392,772.8205128205127,805.4578754578755,785.7142857142858,685.3846153846154,-0.8758540000000001,-0.095886,0.488708,3.431854,-5.562744,2.287903,54.0,56.00000000000001,-2.0000000000000067
868.6131386861315,42.860014595967385,,,,,,,38.097827800528094,38.23445616645053,0.0493430420138448,0.04386052444262478,869.2307692307692,45.61846153846162,0.052481415929203634,61.53846153846154,19.708029197080293,67.15328467153284,11.416666666666664,101.5625,,,0.05810296201902121,0.02518619957648952,0.0007837672686876365,2.3069364571087725,0.6911019135883084,0.2995756174638852,-3.6814590703256327,2021-10-14 15:56:59,2021-10-14 15:56:59.312,0.3059900602714325,1.072441403158513,-0.03186387957171686,0.6599664512011147,0.1941083016715386,0.4550119004489048,-0.2201655560066174,0.4218090297052858,0.9173056346257548,0.5845267777135232,0.6571815894098141,0.90608602688546,0.8932879062985942,1.084231721818107,1.566953817818116,1.0102058716179951,0.5047284536726784,0.9060527151272794,1.105137046745448,0.6505459199536198,901.3553113553114,795.7875457875458,798.2051282051282,798.2051282051282,914.2490842490844,-0.865967,-0.062439,0.5136109999999999,3.499146,-6.355286,1.719666,48.0,59.0,-11.0
869.1184727681077,43.09212524112267,,,,,,,38.080693629299205,38.21637128274277,0.04958141679335842,0.04381530806497957,869.2307692307692,45.61846153846162,0.052481415929203634,61.53846153846154,19.708029197080293,67.15328467153284,11.416666666666664,101.5625,,,0.058301520558478676,0.024280824836769438,0.0007641344364705063,2.4011342674895597,0.6995078937489959,0.2913239393648517,-3.7180683415075135,2021-10-14 15:57:00,2021-10-14 15:57:00.311,0.971430859060718,1.072441403158513,0.3253782987114077,1.07379840264499,0.8632879009460611,0.4550119004489048,-0.09800172034388506,0.9074537229828498,1.010822774928116,0.5845267777135232,0.8079976298757265,0.854010641652012,0.8722371268400236,1.084231721818107,1.4261439370376952,0.9495833334123088,0.5980005607211673,0.9060527151272794,0.9696235546374252,0.652175914144087,782.0879120879123,780.4761904761905,794.5787545787546,780.0732600732601,708.3516483516484,-0.866333,-0.066345,0.5065310000000001,4.149628,-5.106659,0.119629,42.0,56.99999999999999,-14.999999999999993
869.4553621560922,43.03106000108243,,,,,,,38.22324370335941,38.36303793845681,0.0494919714962401,0.04396228416899135,869.2307692307692,45.61846153846162,0.052481415929203634,61.53846153846154,19.708029197080293,67.88321167883211,11.416666666666664,101.5625,,,0.058305674005570074,0.02336990166513374,0.0007488061780675202,2.494904550349823,0.7073838189353581,0.2835314155951065,-3.756306338179472,2021-10-14 15:57:01,2021-10-14 15:57:01.312,1.03078759431756,0.3014293318481422,0.5435235036120657,1.023801928726935,0.7695320886068528,0.2025849235747033,0.048196681391880436,0.8230807424051291,0.9724244834555424,1.030097050689145,1.166235007466198,0.8924998455962072,0.7562260859783972,1.435911920144932,1.35140287895243,0.8453516979544741,0.6212648130997623,1.409659357026825,0.9479693667136572,0.6594185817434381,907.8021978021976,786.5201465201468,797.3992673992674,811.9047619047618,1069.377289377289,-0.871033,-0.068176,0.499634,3.977661,-4.172058,0.8822629999999999,37.0,53.0,-16.0
869.2873303167421,43.0738330549172,,,,,,,38.13536911298094,38.274666149473184,0.049550742950805915,0.043869693923970526,869.2307692307692,45.61846153846162,0.052481415929203634,61.53846153846154,19.11764705882353,68.38235294117648,11.333333333333336,101.5625,,,0.05806174681670302,0.022259967156521544,0.0007350673612841006,2.6083482697184737,0.7163095531401779,0.27462189825497924,-3.804965408584095,2021-10-14 15:57:02,2021-10-14 15:57:02.312,1.02762026442963,0.2478011081502704,0.408084574159175,0.9201729450097976,0.5808390909284795,0.5912951769217458,0.1084407972838135,0.4511095264405486,0.8287561238320972,1.398379669677544,1.196428738513033,0.9615834353442959,0.6953200309202705,1.3968085546300548,1.3663246418626491,0.8061135448744435,0.4756698912191259,1.282811290047024,1.1328489752024031,0.6852960857270749,671.6849816849817,763.956043956044,779.2673992673992,753.8827838827838,636.6300366300368,-0.8639530000000001,-0.062012,0.502197,3.9851379999999996,-5.959015,0.859833,35.0,45.0,-10.0
869.1176470588235,42.96674242641907,,,,,,,37.701900052744215,37.84019954605847,0.04943719940772414,0.0433795127510424,869.2307692307692,45.61846153846162,0.052481415929203634,61.53846153846154,18.38235294117647,68.38235294117648,11.333333333333336,101.5625,,,0.057686132920381314,0.02142370681773017,0.0007281976252187924,2.692630804331233,0.7225394664683558,0.26833959758096604,-3.8432571748856312,2021-10-14 15:57:03,2021-10-14 15:57:03.314,1.2745186381293792,0.2009900800753606,0.4530140963056491,1.220469425394334,0.8879896340972664,0.7080814445165141,0.021565317613034082,0.7973756932979872,1.2541973251248408,1.398379669677544,0.8885112635366377,1.12387412565897,0.7810468580475919,1.396875274879663,1.322737967602034,0.8733749291359715,0.4825270645539173,1.320896478820583,1.036382159383987,0.6580814701713407,773.6263736263736,788.5347985347986,806.6666666666667,780.8791208791209,851.3919413919414,-0.8788450000000001,-0.045531999999999996,0.494324,4.11972,-5.6300349999999995,1.26358,30.0,43.0,-13.0
869.8529411764706,43.160837548937494,,,,,,,37.81797760588779,37.94637339633581,0.049618545280266255,0.04347628871006543,869.2307692307692,45.61846153846162,0.052481415929203634,61.53846153846154,18.38235294117647,68.38235294117648,11.333333333333336,101.5625,,,0.05701886253902861,0.020469472799850254,0.0007236743144151505,2.7855559884984302,0.7290295031643798,0.2617177705903399,-3.888820634410982,2021-10-14 15:57:04,2021-10-14 15:57:04.312,1.2922726037036532,0.2736560355570754,0.6933863435027111,1.284313076354031,0.8790968321006007,0.05100273326976184,0.2916694433397984,0.8052548318597484,1.165293735173407,0.7169068983577473,0.9254208274466044,0.9913762743971422,0.7396906475567814,1.4365804163895401,1.2137193226088272,0.8421551916430795,0.4959711824895265,0.8334735712443421,1.0704641747703871,0.6153080582192068,687.3992673992674,779.2673992673992,806.2637362637363,782.0879120879123,584.2490842490843,-0.75769,-0.06170700000000001,0.679871,7.49176,-31.395111,-4.351501,26.0,42.0,-16.0
