HRV_MeanNN,HRV_SDNN,HRV_SDANN1,HRV_SDNNI1,HRV_SDANN2,HRV_SDNNI2,HRV_SDANN5,HRV_SDNNI5,HRV_RMSSD,HRV_SDSD,HRV_CVNN,HRV_CVSD,HRV_MedianNN,HRV_MadNN,HRV_MCVNN,HRV_IQRNN,HRV_pNN50,HRV_pNN20,HRV_HTI,HRV_TINN,HRV_ULF,HRV_VLF,HRV_LF,HRV_HF,HRV_VHF,HRV_LFHF,HRV_LFn,HRV_HFn,HRV_LnHF,Time,TimeStamp,Delta_TP9,Delta_AF7,Delta_AF8,Delta_TP10,Theta_TP9,Theta_AF7,Theta_AF8,Theta_TP10,Alpha_TP9,Alpha_AF7,Alpha_AF8,Alpha_TP10,Beta_TP9,Beta_AF7,Beta_AF8,Beta_TP10,Gamma_TP9,Gamma_AF7,Gamma_AF8,Gamma_TP10,RAW_TP9,RAW_AF7,RAW_AF8,RAW_TP10,AUX_RIGHT,Accelerometer_X,Accelerometer_Y,Accelerometer_Z,Gyro_X,Gyro_Y,Gyro_Z,Attention,Meditation,A_M
807.2736787022502,60.23233443217626,,,,,,,35.037237454313185,35.153037810164946,0.07461203805009972,0.04340193218071725,807.6923076923077,68.42769230769235,0.08472000000000006,88.46153846153845,15.646258503401361,58.50340136054422,16.333333333333332,85.9375,,,0.047178768960540365,0.004451891297846804,0.0009404918873601712,10.597466515716318,0.8974269544206065,0.08468316017698183,-5.414426262343385,2021-10-14 16:02:00,2021-10-14 16:02:00.596,0.7744188233113983,0.4855677769923386,0.5439042012893334,0.7136349131209484,0.2752603726503566,-0.1133220160605654,0.2079565310493158,0.3814980691579427,1.07113390663994,0.5200148866981473,0.5703245073470183,1.154659200695727,0.5016606960322704,1.4258749957094359,0.7899355842294584,0.6568261151235698,0.22009169148248398,1.1333867135674758,0.6043677036406572,0.5087412574510647,737.7655677655678,812.3076923076924,784.5054945054945,764.3589743589743,724.4688644688645,-0.081299,0.112732,1.003418,4.201965,-5.779572,0.201874,22.0,64.0,-42.0
808.3725798011511,60.25347804344064,,,,,,,34.97935332845609,35.090804783225735,0.07453676627460841,0.04327132587433946,807.6923076923077,68.42769230769235,0.08472000000000006,92.30769230769226,14.965986394557824,58.50340136054422,16.333333333333332,125.0,,,0.04594584624719388,0.004365751433086476,0.0009498444806450967,10.524155337609619,0.8963042066385045,0.085166379427661,-5.433964954887721,2021-10-14 16:02:01,2021-10-14 16:02:01.597,0.6934871140362853,0.8745475688424338,1.063576342380926,0.6562868785800425,0.3662110553012919,0.6340696661640373,0.5938463974299782,0.3621567589346881,1.053231115524621,1.2978211143439429,0.6120700369848974,1.140987034549858,0.4976326176598941,1.322177931288137,0.7594944048951623,0.7193202869861648,0.337138486723575,1.0619713928686,0.494239582071715,0.3527935390996874,950.5128205128206,745.8241758241759,747.4358974358977,897.3260073260074,772.8205128205127,-0.091675,0.11651600000000001,1.0006709999999999,4.142151,-4.9646,0.36636399999999997,21.0,51.0,-30.0
808.9481946624803,59.686577133639624,,,,,,,34.97935332845609,35.09781349841576,0.07378294126553163,0.0432405357466069,807.6923076923077,68.42769230769235,0.08472000000000006,92.30769230769226,14.965986394557824,58.50340136054422,16.333333333333332,125.0,,,0.04487074321556559,0.0042955638661480895,0.0009658352901921967,10.445833099858435,0.8950493853362871,0.08568482540166346,-5.45017244784442,2021-10-14 16:02:02,2021-10-14 16:02:02.597,1.5093185680043781,1.2186804880238908,1.8639578584619656,1.431653094562958,0.3545857235568091,0.6373760797312842,0.5618424019806544,0.1949409932716152,1.062733751629341,1.294895136720459,0.8650972281089159,1.172322756595766,0.4416659243261841,1.112043981875724,0.7446122567461949,0.8660461379614051,0.2729478080467626,1.199114091005173,0.5757000416854444,0.47925572846397496,603.992673992674,768.3882783882782,811.098901098901,684.5787545787547,648.7179487179487,-0.085022,0.11566199999999999,1.012207,3.5813900000000003,-4.411316,-0.104675,22.0,44.0,-22.0
809.4714809000521,59.40088899475339,,,,,,,35.031453345738186,35.14806799434669,0.07338231228196634,0.043276945726101024,807.6923076923077,68.42769230769218,0.08471999999999984,92.30769230769226,14.965986394557824,59.18367346938776,16.333333333333332,125.0,,,0.043492987330246466,0.004206964811123313,0.0009938407949080846,10.338329242795183,0.8931936640705453,0.0863963260497836,-5.4710138387721035,2021-10-14 16:02:03,2021-10-14 16:02:03.602,1.5093185680043781,1.3023357451789221,1.8978750891575589,1.431653094562958,0.3545857235568091,0.2110567671752742,0.198853061726508,0.1949409932716152,1.062733751629341,0.4440948213733871,0.9872428233466772,1.172322756595766,0.4416659243261841,1.1070824626707672,0.9021533718250508,0.8660461379614051,0.2729478080467626,1.176599677532773,0.7087975970376155,0.47925572846397496,728.901098901099,771.6117216117218,802.6373626373628,739.3772893772892,797.8021978021977,-0.092468,0.11956800000000001,1.001831,4.194489,-5.016937,1.009369,24.0,39.0,-15.0
810.204081632653,58.742898351690215,,,,,,,35.077699508904445,35.19447859543642,0.07250382919981918,0.043294893600411034,807.6923076923077,68.42769230769218,0.08471999999999984,92.30769230769226,14.965986394557824,59.863945578231295,16.333333333333332,125.0,,,0.04237950093395301,0.004131968486601339,0.0010180281686480881,10.25649180805136,0.8916463056319075,0.0869348235555518,-5.489001354423396,2021-10-14 16:02:04,2021-10-14 16:02:04.597,1.5968131130541492,1.2314469662466851,1.30265007736576,1.275379511346716,0.6159996894576941,0.955561269814184,0.3778167288739379,0.4012576038842718,1.400489550096103,1.3863272962659228,0.964084978299132,1.349462229861005,0.8795035196991985,1.2939597900234658,0.9947221173253634,0.8441951797218857,0.4084400467734176,1.2874707170359092,0.8855799059382433,0.7256562071392554,801.4285714285713,451.68498168498166,806.6666666666667,812.7106227106227,855.0183150183151,-0.088806,0.11926300000000001,0.996094,4.344025,-5.099182,0.657959,26.0,33.0,-7.0
810.9890109890109,58.13145124399945,,,,,,,35.17000940406076,35.28537402855016,0.07167970275344106,0.043366813763814765,807.6923076923077,68.42769230769218,0.08471999999999984,92.30769230769226,14.965986394557824,59.863945578231295,16.333333333333332,125.0,,,0.041288806652379835,0.004052804871654257,0.0010410520571868843,10.187711464017942,0.8901775677474569,0.08737757943886436,-5.508346076671036,2021-10-14 16:02:05,2021-10-14 16:02:05.596,1.3329057071679289,0.9165435120943464,1.437649447841296,1.1402885107598622,0.3742911385916154,0.5213301885478308,0.7922434952732288,0.1755682224522858,1.401023441586053,0.9509735682819342,0.667610852554568,1.370195392809634,0.9382815378395172,1.339881895643003,1.071242355437014,0.8560083253451021,0.7694214182860059,1.2145840544235058,1.2556333144150549,0.9350035000499292,832.0512820512822,844.5421245421246,799.4139194139194,786.5201465201468,667.2527472527472,-0.097351,0.121643,1.005798,4.1346739999999995,-5.936584,0.829926,32.0,7.000000000000001,25.0
811.512297226583,57.7493511433453,,,,,,,35.14118860973893,35.260214859137285,0.07116263221236321,0.043303334687394314,807.6923076923077,68.42769230769218,0.08471999999999984,88.46153846153835,14.965986394557824,59.18367346938776,14.7,125.0,,,0.040023864975213715,0.0039491169888994,0.0010647204669846507,10.134889669695038,0.8886746617779933,0.08768469028678963,-5.534263272173563,2021-10-14 16:02:06,2021-10-14 16:02:06.599,1.4006149408924615,0.9165435120943464,1.276346951805414,1.012580522145277,0.7997662428276302,0.5213301885478308,-0.1517026978824531,0.1335050186201767,1.213160958360675,0.9509735682819342,0.3629731090148535,0.9258528957950458,0.9522754078708578,1.339881895643003,1.3891537219927932,0.8102701528547924,0.8046312750993284,1.2145840544235058,1.30503573071635,0.979930203972714,905.3846153846154,802.6373626373628,814.7252747252749,810.2930402930403,1075.824175824176,-0.094177,0.128235,0.99585,4.508514,-5.024414,0.672913,41.0,3.0,38.0
812.2233930453108,57.51198154401861,,,,,,,35.25637006669199,35.37601287042077,0.07080808314124762,0.04340723299596615,807.6923076923077,62.72538461538455,0.07765999999999991,84.61538461538453,15.068493150684931,59.58904109589043,14.6,125.0,,,0.0391329890292148,0.0038636821660760078,0.001077210746477143,10.128418267116064,0.8878952183272342,0.08766375903036742,-5.556134621171318,2021-10-14 16:02:07,2021-10-14 16:02:07.598,1.615973511636401,0.9165435120943464,1.3799094415893318,1.325691827025639,1.043798375670503,0.5213301885478308,0.3546696233532777,0.2981726010157949,1.177488799353816,0.9509735682819342,0.5481756986351374,0.8454221239134964,1.115495886669436,1.339881895643003,1.4499090776534052,0.8000585313702394,0.8081874801232707,1.2145840544235058,1.179064282096895,0.8531579661536622,722.4542124542122,654.7619047619047,790.5494505494507,774.4322344322345,626.5567765567765,-0.091248,0.13006600000000001,1.002869,4.172058,-5.929108,0.9944149999999999,50.0,4.0,46.0
812.9083245521601,57.1294197690455,,,,,,,35.02993735244384,35.15035088366516,0.0702778136766144,0.04309211296580361,811.5384615384614,62.72538461538455,0.077291943127962,84.61538461538453,14.383561643835616,59.58904109589043,14.6,125.0,,,0.038402397981718836,0.003778101505065935,0.0010833687612779037,10.164469623229099,0.8876320943270826,0.08732694643491838,-5.5785336428561365,2021-10-14 16:02:08,2021-10-14 16:02:08.596,1.4194224838984668,0.9165435120943464,0.8409224679401738,0.8180479948461669,0.2335283868157935,0.5213301885478308,0.3769473235901161,-0.08012998369480713,0.9398710986691794,0.9509735682819342,0.7339519887743259,0.8725166682051805,0.9261711556545406,1.339881895643003,1.35221753179424,0.9133565868081314,0.6630894397039363,1.2145840544235058,0.9691411462047524,0.7537709684771272,861.0622710622711,761.1355311355313,780.8791208791209,865.4945054945056,677.7289377289378,-0.09552000000000001,0.12677,0.998352,3.7757870000000002,-5.196381,0.747681,62.0,6.0,56.0
813.3437990580849,56.97891581435739,,,,,,,34.98514605074942,35.104940245068605,0.07005514258588237,0.04301397034226477,815.3846153846154,57.02307692307691,0.06993396226415093,84.61538461538453,14.285714285714285,59.863945578231295,14.7,125.0,,,0.037879511712195314,0.003696141416258932,0.0010837682707785141,10.248393512641963,0.8879518397049001,0.08664302737883378,-5.600465863959851,2021-10-14 16:02:09,2021-10-14 16:02:09.596,1.4750771174310908,0.9165435120943464,0.8581743106011535,0.8708948126097932,0.2756543265165459,0.5213301885478308,0.2062637726511148,-0.02328229941970135,0.9051459569921346,0.9509735682819342,0.7858748845615239,0.8725166682051805,0.8981374303243882,1.339881895643003,1.255312879946052,0.9768516526552774,0.6365226972871278,1.2145840544235058,0.976869462836862,0.7900189111205977,877.1794871794873,778.0586080586081,794.1758241758242,781.6849816849817,1177.765567765568,-0.094849,0.127869,1.00415,3.783264,-5.196381,0.299072,71.0,22.0,49.0
813.8040042149631,57.32895522239875,,,,,,,35.19844926190311,35.317887081246134,0.07044565389881706,0.04325175236248356,815.3846153846154,62.72538461538455,0.07692735849056596,84.61538461538453,14.383561643835616,60.273972602739725,14.6,125.0,,,0.03759745520733965,0.003606392965496585,0.0010779486254410269,10.42522419687635,0.8892113877447972,0.0852942220668239,-5.625047184681781,2021-10-14 16:02:10,2021-10-14 16:02:10.597,1.518561122272071,0.9165435120943464,1.1520908523433568,0.9491987123540392,0.302713278637584,0.5213301885478308,0.6236985940046309,0.050922279707271034,0.8565571558064207,0.9509735682819342,1.310562220245454,0.8724010391086718,0.8683073438522866,1.339881895643003,1.254173961794117,1.003270621180778,0.6244911486812729,1.2145840544235058,1.058762205938991,0.8163114961162541,674.1025641025641,873.956043956044,792.5641025641023,762.3443223443222,637.8388278388279,-0.093689,0.143066,0.99646,4.157104,-4.373932,0.9869379999999999,75.0,28.000000000000004,47.0
814.4362486828239,57.76840541611541,,,,,,,35.0066306716518,35.11340662946835,0.07093054307141096,0.04298265300478401,815.3846153846154,68.42769230769218,0.08392075471698099,84.61538461538453,13.698630136986301,60.273972602739725,16.22222222222222,125.0,,,0.03770444820338313,0.003548529799338633,0.0010696651153984157,10.625371727302504,0.8908812263485548,0.08384471143342538,-5.641221902306265,2021-10-14 16:02:11,2021-10-14 16:02:11.598,1.518561122272071,0.9165435120943464,0.7690427830103972,0.9491987123540392,0.302713278637584,0.5213301885478308,0.4032607083738785,0.050922279707271034,0.8565571558064207,0.9509735682819342,1.310562220245454,0.8724010391086718,0.8683073438522866,1.339881895643003,1.2946971567898258,1.003270621180778,0.6244911486812729,1.2145840544235058,0.9215000720230206,0.8163114961162541,907.8021978021976,886.8498168498169,730.5128205128206,779.6703296703297,829.6336996336996,-0.08819600000000001,0.132935,0.999023,3.9402769999999996,-5.682373,0.463562,73.0,39.0,34.0
815.068493150685,57.6056056716533,,,,,,,35.08232077228117,35.2024746192696,0.07067578510975951,0.043042175065151685,815.3846153846154,62.72538461538455,0.07692735849056596,84.61538461538453,14.383561643835616,60.273972602739725,16.22222222222222,125.0,,,0.038246415440793165,0.003493486235600656,0.0010560138598366938,10.947922179008447,0.8936931237845397,0.08163130036657616,-5.656855119982206,2021-10-14 16:02:12,2021-10-14 16:02:12.597,1.518561122272071,0.9165435120943464,0.4015498877961613,0.9491987123540392,0.302713278637584,0.5213301885478308,0.316705258592593,0.050922279707271034,0.8565571558064207,0.9509735682819342,0.9588632734962184,0.8724010391086718,0.8683073438522866,1.339881895643003,1.3830504511568893,1.003270621180778,0.6244911486812729,1.2145840544235058,0.8991439377734971,0.8163114961162541,695.4578754578755,843.7362637362637,804.2490842490844,748.2417582417582,536.3003663003664,-0.08843999999999999,0.13281199999999999,1.0023799999999998,4.082336,-5.861816,0.7102970000000001,73.0,45.0,28.0
815.4899894625921,57.71961370681439,,,,,,,35.10557720226144,35.224686314066936,0.0707790585447304,0.04304844652402909,815.3846153846154,68.42769230769218,0.08392075471698099,84.61538461538453,14.383561643835616,60.273972602739725,16.22222222222222,125.0,,,0.03897446045820505,0.003461965182610327,0.0010427776466579658,11.257900759365304,0.8963931606684674,0.07962347331253293,-5.665918879294773,2021-10-14 16:02:13,2021-10-14 16:02:13.599,1.518561122272071,1.334326333034396,0.23632472462140802,0.7772517139154723,0.302713278637584,0.5706773211041929,-0.009829598889721628,0.1906970467364697,0.8565571558064207,0.5272060578705766,0.6197947398127571,0.7466794082503821,0.8683073438522866,1.337636058353604,1.070944221510554,0.7514793144360054,0.6244911486812729,1.1953183133056522,0.6168138000743013,0.3682246834507036,750.6593406593408,813.5164835164835,797.8021978021977,749.8534798534797,587.8754578754579,-0.074097,0.14141800000000002,0.99823,4.523468,-5.869293,0.979462,69.0,36.0,33.0
816.2864721485411,57.94462948105542,,,,,,,35.139666855553195,35.25543219990793,0.07098565449521639,0.04304820434309339,823.0769230769231,68.42769230769235,0.0831364485981309,84.61538461538453,14.482758620689655,60.0,14.5,187.5,,,0.03993057578107546,0.0034406835940628336,0.0010277634351968405,11.605419298065874,0.8993570861154287,0.07749457930100923,-5.672085108134563,2021-10-14 16:02:14,2021-10-14 16:02:14.596,1.370860363687425,0.9651269426190308,0.1639372065223736,0.90568433277864,0.8952671609712848,0.2759184664613801,-0.1918714690623582,-0.1647589695185133,0.7386361992538731,0.8884250445925052,0.7076254152009784,0.7522039985821973,0.4742522943368683,1.38825680497753,1.0536640553336758,0.7021368566810647,0.4141203788120731,1.188433026517788,0.6406655431931867,0.4081936767667018,783.2967032967032,684.5787545787547,774.8351648351648,789.7435897435898,603.992673992674,-0.06915299999999999,0.140076,0.9972530000000001,4.373932,-5.428162,1.039276,66.0,33.0,33.0
816.7639257294429,57.839335198327205,,,,,,,35.23309252220845,35.352778787730884,0.07081524217254273,0.0431374249183963,823.0769230769231,57.02307692307691,0.06928037383177567,84.61538461538453,14.482758620689655,60.68965517241379,14.5,187.5,,,0.04137531157665822,0.003426487026628765,0.0010079126304633724,12.075140298244865,0.9031995719321388,0.0747982673181379,-5.676219733132996,2021-10-14 16:02:15,2021-10-14 16:02:15.603,1.3861414333341249,0.3840784666409363,0.3500301662332099,0.5852541313460016,0.8583186731661294,0.03876708002935112,-0.3892952195279762,-0.6745087457587259,0.6550985540235811,0.8117818425009024,0.5354041243746912,0.4614570245142826,0.4771929371036995,1.38408467436104,0.9972521972878976,0.6552524957522394,0.4623996881253102,1.247903317133712,0.7384054623469507,0.4411497997283649,865.4945054945056,744.2124542124542,792.9670329670329,797.8021978021977,1045.6043956043961,-0.055786,0.146484,1.000366,4.42627,-4.755249,0.9869379999999999,90.0,31.0,59.0
816.9652265542676,57.542105504685956,,,,,,,35.2679428127994,35.39002893018897,0.07043397152579256,0.04316945405565153,823.0769230769231,57.02307692307691,0.06928037383177567,76.9230769230769,14.383561643835616,60.95890410958904,14.6,171.875,,,0.04267371381095348,0.003423434707538961,0.0009922125513506868,12.465175315591388,0.9062283463064972,0.07270081032658968,-5.677110931429932,2021-10-14 16:02:16,2021-10-14 16:02:16.596,1.6838775176507432,0.9873482983174604,0.3477807435727086,-0.036603492992298765,0.994981221594432,-0.004777836048318632,-0.1554513512915026,0.2840811896106417,0.8717240859036587,0.5077367931723782,0.44028914672873204,0.5390996130166578,0.7625284009661045,1.3692637141467898,0.902970448693179,0.917921736236132,0.1412027148771652,1.159751926647443,0.70963088501947,0.501016280903641,876.3736263736264,790.1465201465203,803.4432234432236,809.4871794871796,829.6336996336996,-0.054321,0.151001,0.996094,4.396362,-5.286102,0.9944149999999999,96.0,38.0,58.0
817.2286617492098,57.58738324011278,,,,,,,35.11138890285622,35.228226014613085,0.07046667100105349,0.04296397146387796,823.0769230769231,57.02307692307691,0.06928037383177567,76.9230769230769,14.383561643835616,60.95890410958904,14.6,140.625,,,0.04402910005062563,0.0034254306543703124,0.0009771873001457893,12.853595501766007,0.90909639104587,0.07072701104690635,-5.67652807667009,2021-10-14 16:02:17,2021-10-14 16:02:17.597,1.334762227460276,1.288448149819362,0.5277163527465093,0.6684466055484259,1.043797176235174,-0.1175522775679195,0.01316034647258695,0.01022969468954977,1.2720840131245459,0.8304690822817866,0.3742103546847447,1.060950601736115,0.6665325918584983,1.3400109073308568,0.7835817279511748,0.7213800008020035,0.3827724452007746,1.232028994880621,0.6827940886158477,0.5844513661447613,759.1208791208792,779.2673992673992,788.9377289377289,784.5054945054945,543.1501831501831,-0.045959,0.15033,0.997375,3.902893,-5.301056,0.433655,96.0,41.0,55.0
818.2493368700266,57.39914709385851,,,,,,,34.94030788438884,35.06123950366158,0.07014872424268886,0.0427012969152444,823.0769230769231,57.02307692307691,0.06928037383177567,69.23076923076917,13.79310344827586,60.68965517241379,14.5,140.625,,,0.04570683390514877,0.0034350393389293125,0.0009620005479932898,13.306058357804833,0.9122415183869794,0.06855835844518847,-5.673726900992234,2021-10-14 16:02:18,2021-10-14 16:02:18.603,1.3383093111463749,1.218376121583068,0.9117170033889272,1.147599136835844,1.015272938383955,-0.1274870558552701,-0.03739885900011615,0.08105843250259159,1.357023928799878,0.8457934754080783,0.5078040030765194,1.1177708441780048,0.5135868579756503,1.138735807450918,0.7370534475027549,0.6553544849656815,0.3460139952417352,1.1624212352646708,0.4386275027735089,0.4884758552062577,805.054945054945,788.5347985347986,799.0109890109891,767.5824175824176,770.4029304029305,-0.043457,0.151367,0.999634,4.366455,-5.076752,0.6654359999999999,85.0,44.0,41.0
818.4931506849315,57.24105585603575,,,,,,,34.95413382031289,35.07270684222497,0.06993467912118176,0.04270546893527767,823.0769230769231,57.02307692307691,0.06928037383177567,69.23076923076917,13.698630136986301,60.95890410958904,14.6,140.625,,,0.0469721685439019,0.0034493404415682216,0.0009540690067101088,13.617724704073074,0.9142898314652818,0.06713969119906035,-5.6695722425724355,2021-10-14 16:02:19,2021-10-14 16:02:19.597,1.3784307761122612,0.2848982955704224,0.4908220231972982,0.7337453894562395,1.090512676108391,0.09630061639848728,-0.1712696014844456,0.1566258739620639,1.168212083115739,0.7622961612286988,0.3157623186233438,0.7915821646458712,0.6209019098021011,1.133762562281961,0.7112352529952434,0.5853926648856791,0.2677441472558146,1.101791321510837,0.3969863550769311,0.4827026092837657,875.9706959706958,760.7326007326008,799.4139194139194,795.7875457875458,841.7216117216118,-0.044373,0.149475,1.0023799999999998,3.887939,-5.50293,0.328979,79.0,44.0,35.0
819.072708113804,57.323982005282964,,,,,,,34.79616805869675,34.90504928674284,0.06998643885631485,0.042482392239422635,823.0769230769231,57.02307692307691,0.06928037383177567,75.0,13.698630136986301,60.95890410958904,13.272727272727273,187.5,,,0.04811300285935506,0.003471128006459943,0.0009518189901101015,13.860912870344846,0.9158110397032972,0.06607148088079086,-5.66327566394068,2021-10-14 16:02:20,2021-10-14 16:02:20.597,1.205384513818232,0.1640069040630493,0.024646928222874932,0.5519565237070022,1.003525489083552,0.1144363971888529,-0.02774897977822363,0.2478137666370043,1.331055220393036,0.7056351066039867,0.2361861647472901,1.1195238924587618,0.5250615211530996,1.078268266089201,0.6686294061257837,0.5499805808449243,0.2287095710478077,1.148390504641767,0.4011619998990182,0.4102378142227668,642.2710622710622,805.4578754578755,795.3846153846154,762.3443223443222,566.9230769230769,-0.049744,0.15771500000000002,0.998474,4.4487,-5.196381,0.934601,71.0,39.0,32.0
820.159151193634,56.94003101004096,,,,,,,34.957944113938424,35.07586582612693,0.06942558761573557,0.04262336652960797,823.0769230769231,57.02307692307691,0.06928037383177567,76.9230769230769,13.79310344827586,61.379310344827594,13.181818181818182,187.5,,,0.0492644881936081,0.00350938982600493,0.0009596163367322504,14.037907053970835,0.9168301593583325,0.06531102933175448,-5.652313095361103,2021-10-14 16:02:21,2021-10-14 16:02:21.602,1.268741237279556,0.3201789004328177,-0.2072527199602327,0.6542839724017895,0.9972741084017,-0.2925949073364522,-0.1233651000925764,0.3428655478837367,1.2856685494534859,0.6859785792599319,0.4851652928005461,1.130636975935497,0.4983826973941781,1.010053988708906,0.6274210487299329,0.5862707691081404,0.3030121453002684,0.963575369034779,0.4505091717026872,0.3960512557885856,913.4432234432236,795.3846153846154,800.2197802197803,793.3699633699632,775.2380952380953,-0.046631,0.158997,0.9936520000000001,4.209442,-5.196381,0.8747860000000001,61.0,39.0,22.0
820.6366047745357,56.734958908567904,,,,,,,34.75163120110206,34.863657498077465,0.06913530127522821,0.04234716194587716,823.0769230769231,57.02307692307691,0.06928037383177567,76.9230769230769,13.79310344827586,60.68965517241379,13.181818181818182,187.5,,,0.04990380948291611,0.0035483102354448726,0.0009763110418525037,14.064105495741515,0.9168702603749359,0.06519222005640928,-5.64128377882955,2021-10-14 16:02:22,2021-10-14 16:02:22.596,1.268741237279556,0.320968896953528,0.16934405935514302,0.4852361110861315,0.9972741084017,-0.04519126365504162,0.475094597853071,0.3889293522389141,1.2856685494534859,0.5110689865491653,1.4526012052422068,0.9618487805956968,0.4983826973941781,1.17169476174984,0.7764666076614067,0.6760234538615795,0.3030121453002684,0.9431691275969692,0.5179298814780527,0.4228797029185803,873.5531135531136,1057.289377289377,815.5311355311355,824.7985347985347,801.8315018315019,-0.046997000000000004,0.162476,0.9981690000000001,4.172058,-5.7272339999999975,0.9869379999999999,55.00000000000001,36.0,19.000000000000007
821.3262599469496,56.050314548637076,,,,,,,34.75163120110206,34.863657498077465,0.06824366549811453,0.04231160367786938,823.0769230769231,57.02307692307691,0.06928037383177567,76.9230769230769,13.79310344827586,60.68965517241379,13.181818181818182,187.5,,,0.05024920052820223,0.0035966562743545523,0.001003348528201923,13.971087781308723,0.9161336107821996,0.06557353479718685,-5.6277506778131405,2021-10-14 16:02:23,2021-10-14 16:02:23.604,1.268741237279556,0.08165416193019423,0.9587531831574916,0.5314069269960705,0.9972741084017,0.1511234461184282,0.8788746478714432,0.3862677377772213,1.2856685494534859,0.45182860106823897,1.546305646700424,0.9080132647761056,0.4983826973941781,1.240146770707718,1.2924482397014818,0.9206498039070712,0.3030121453002684,0.9479743130439268,1.099293519536055,0.7023505463305221,846.5567765567764,980.7326007326008,792.1611721611722,803.8461538461539,728.901098901099,-0.055359000000000005,0.164734,1.002197,4.545898,-5.114136,0.88974,59.0,40.0,19.0
822.4933687002653,54.589517458528064,,,,,,,34.67468804179109,34.79423046931896,0.06637076909786209,0.042158015324288055,823.0769230769231,57.02307692307691,0.06928037383177567,69.23076923076928,13.79310344827586,59.31034482758621,13.181818181818182,187.5,,,0.05023276359813257,0.0036744256607034328,0.0010537884607616527,13.670915739390955,0.9139714335944368,0.06685517276366118,-5.606358441332554,2021-10-14 16:02:24,2021-10-14 16:02:24.597,1.268741237279556,0.08165416193019423,0.991011052074805,0.5314069269960705,0.9972741084017,0.1511234461184282,0.5786394682244231,0.3862677377772213,1.2856685494534859,0.45182860106823897,1.0761313805898671,0.9080132647761056,0.4983826973941781,1.240146770707718,1.220498737572849,0.9206498039070712,0.3030121453002684,0.9479743130439268,1.080183250543483,0.7023505463305221,691.4285714285713,768.7912087912088,803.040293040293,758.7179487179487,695.4578754578755,-0.05285599999999999,0.15545699999999998,0.9965209999999999,3.499146,-5.7720949999999975,0.9944149999999999,66.0,42.0,24.0
823.0238726790451,54.214980363021155,,,,,,,34.745718545814505,34.86106111634423,0.06587291348736295,0.04221714545498281,823.0769230769231,45.61846153846162,0.055424299065420665,69.23076923076928,13.79310344827586,60.0,13.181818181818182,226.5625,,,0.04987489204884499,0.003756534650616821,0.0011086717020943482,13.276835351606715,0.9111217097744044,0.06862491592653093,-5.584258382021687,2021-10-14 16:02:25,2021-10-14 16:02:25.601,1.2437892155608148,1.372022204855724,0.4139258940770585,0.7219660720959201,0.8086032882381002,0.158386126869077,-0.27644556317692404,-0.007183427819310716,1.021235267972979,0.6594985006240607,0.7732330405307011,0.6300404596448126,0.6785586731539296,1.352447296616397,1.027631379896372,0.7605720776918047,0.3899851874434502,1.108049068969914,0.9023632988224721,0.5218256551922749,691.025641025641,801.4285714285713,811.5018315018315,767.5824175824176,685.3846153846154,-0.052551,0.159973,1.004456,4.42627,-5.592651,1.1589049999999999,71.0,49.0,22.0
824.0318302387268,53.84525913955007,,,,,,,34.94030788438884,35.05304281822625,0.06534366412029351,0.04240164833713575,823.0769230769231,45.61846153846162,0.055424299065420665,69.23076923076928,14.482758620689655,60.0,13.181818181818182,226.5625,,,0.04922838837375655,0.0038612504192514522,0.0011765109195772214,12.749338434076504,0.9071656757387316,0.07115394107933116,-5.556764205152285,2021-10-14 16:02:26,2021-10-14 16:02:26.596,1.1732035533706102,1.0477230919646452,-0.1571099957003211,0.2795571603494393,0.9268508486968108,0.04766764336596687,-0.5257595254436845,0.2372430252688904,0.9885048515657782,0.7278159800772741,0.4620845739741551,0.8595953469314919,0.7067773973032961,1.429431795525969,0.959108799130837,0.8097710766149678,0.3721864639063216,1.185298950065067,0.6881599227621729,0.4985478036428684,848.1684981684982,773.2234432234433,805.054945054945,793.7728937728937,792.9670329670329,-0.047363,0.159973,0.992676,3.424377,-4.98703,0.059814,74.0,57.99999999999999,16.000000000000007
824.7863247863247,53.72263127373028,,,,,,,34.395031113035586,34.51487257998969,0.0651352109743673,0.04170174756710016,830.7692307692308,57.02307692307691,0.06863888888888886,69.23076923076928,13.888888888888891,59.72222222222222,13.090909090909092,226.5625,,,0.04802599379491327,0.004027029486586226,0.0012773570259483307,11.925910638321554,0.9005372457133259,0.07551098385892878,-5.5147262749180666,2021-10-14 16:02:27,2021-10-14 16:02:27.597,0.966139714830904,0.3633564490756612,-0.2489638088946123,0.3486464614677764,0.4399837543668773,-0.2118662658312882,-0.3838227015806656,-0.029166562628404762,0.6816416343707569,0.5319926993479837,0.2781702642501247,0.8087481852588866,0.7577183887424392,1.430424076011146,0.8465044617777112,0.7986007723100959,0.4754581773121822,1.220835794312348,0.5425860466942722,0.4223153730351246,761.9413919413921,796.9963369963368,786.9230769230769,774.8351648351648,939.6336996336996,-0.052368,0.157288,0.990295,4.0898129999999995,-4.762726,0.807495,71.0,67.0,4.0
824.5726495726497,53.574800613644896,,,,,,,34.34687563808969,34.467560893927285,0.06497280820727082,0.04165415340405798,830.7692307692308,57.02307692307691,0.06863888888888886,69.23076923076928,13.888888888888891,59.02777777777778,13.090909090909092,140.625,,,0.046801365549162255,0.004191778166225272,0.001369365666223284,11.165038724200242,0.8937953146607298,0.08005304206634115,-5.474630251725913,2021-10-14 16:02:28,2021-10-14 16:02:28.600,1.4718059916598112,0.5154520482586267,0.2268405669383155,0.4701780866824892,0.6349729966260603,-0.1824932380586531,-0.2803300012997867,0.014119035644248759,0.9489700021458688,0.5238684832865669,0.2066452994642957,1.010903272902354,0.6222608192107212,1.276516084213199,0.8333361383954874,0.7414570136211427,0.4734586837660856,0.9288555708215248,0.6377961205634755,0.4760276429754889,834.8717948717949,737.3626373626372,775.2380952380953,834.8717948717949,728.4981684981685,-0.049132999999999996,0.16308599999999998,0.9968870000000001,4.3141169999999995,-5.188904,0.785065,51.0,84.0,-33.0
823.9787798408488,54.12400419962907,,,,,,,36.239215448980964,36.36001554365392,0.06568616270686375,0.043980763019140535,830.7692307692308,57.02307692307691,0.06863888888888886,69.23076923076928,14.482758620689655,59.31034482758621,12.083333333333336,187.5,,,0.04534734551299785,0.004381718983982996,0.0014662937250691727,10.349213557227484,0.8857706457744169,0.08558820830939656,-5.4303141694903125,2021-10-14 16:02:29,2021-10-14 16:02:29.609,1.525404442404911,0.8481104237000485,0.6562359408788849,1.2565440861697281,0.8512323480484131,0.1302595675351294,-0.2210760282561593,0.2685042087995798,1.329174617984213,0.7637676633173403,0.4849787720624186,1.2095759709321552,0.8321888147170394,1.235780783274552,0.8698953063446141,0.5864627293906214,0.4023217381057255,1.013370083656971,0.6751742503317169,0.5384470963366099,658.7912087912088,794.5787545787546,789.7435897435898,745.8241758241759,630.989010989011,-0.051940999999999994,0.161377,0.9955440000000001,4.0898129999999995,-4.545898,0.074768,41.0,83.0,-42.0
825.2519893899205,53.66042027147441,,,,,,,34.275395859730395,34.39164738503255,0.06502307290545722,0.041533248390069284,830.7692307692308,57.02307692307691,0.06863888888888886,69.23076923076928,13.79310344827586,60.0,12.083333333333336,171.875,,,0.043322748098746484,0.004653988595883283,0.0015890222577938007,9.308735336624572,0.8740458940683319,0.09389523522378587,-5.370030664495396,2021-10-14 16:02:30,2021-10-14 16:02:30.597,1.56342349314803,0.4513737982404431,0.5800693556265271,1.234318893518586,0.9096005244783448,0.2386142866630529,-0.1535497253114197,0.3735396739764243,1.5518866023817968,0.8401541469390842,0.4774867122091385,1.1891738227384858,0.8965953744635214,1.326107030182214,0.9838366754915422,0.5955467279982968,0.2571237872619414,1.147499336240084,0.5269680375211678,0.5437423628835021,745.8241758241759,766.7765567765567,806.2637362637363,772.4175824175826,936.8131868131868,-0.043518,0.163208,0.9981690000000001,3.947754,-5.301056,0.276642,30.0,87.0,-57.0
826.1217948717949,53.466104812318974,,,,,,,34.05651290265453,34.166626291218016,0.064719397483777,0.04122456653977968,830.7692307692308,57.02307692307691,0.06863888888888886,71.15384615384629,13.194444444444445,60.41666666666666,12.0,171.875,,,0.041633546450303885,0.00489336992179395,0.0016833368921875945,8.508154322214143,0.8635828196560497,0.10150060600115124,-5.319874067285983,2021-10-14 16:02:31,2021-10-14 16:02:31.597,1.4477297827810085,0.08233244617391454,0.06875723232967494,0.5338823978104233,0.926718893979542,0.08641533086084859,-0.1005202204894216,0.3394411619099129,1.500985507533231,0.8712995126947161,0.308574833352475,0.762490427769272,0.8031010727618164,1.393165021582852,0.970560598946731,0.6353174471034446,0.2205634307888188,1.109035553670581,0.5627189665437052,0.5999420624528549,861.8681318681319,805.054945054945,831.2454212454213,799.0109890109891,792.5641025641023,-0.049132999999999996,0.166687,1.006775,4.1346739999999995,-5.166473000000001,1.061707,25.0,84.0,-59.0
826.7628205128206,52.95871135723746,,,,,,,34.013961241178954,34.12258941688222,0.06405550666198134,0.04114113551947211,830.7692307692308,57.02307692307691,0.06863888888888886,71.15384615384629,13.194444444444445,60.41666666666666,12.0,171.875,,,0.039987726010450905,0.005145071889364729,0.001769125105498495,7.772044175535954,0.8525818015163297,0.10969852747363422,-5.2697159371280975,2021-10-14 16:02:32,2021-10-14 16:02:32.597,1.202597593543424,0.3035991470258485,0.7459857812915786,0.7354073152616232,0.7897050961984239,0.3168246409554227,0.052732213575322685,0.471967421607639,0.9545370861476616,0.9063951421342656,0.6607781421418711,0.567791411090468,0.6806746806613153,1.431887479152,0.9918321062369558,0.7821321172466571,0.2755311000386715,1.058740461530025,0.7637516959315741,0.6348267739201097,891.2820512820513,784.5054945054945,813.9194139194141,814.3223443223442,924.3223443223444,-0.034546,0.166992,0.9944459999999999,4.239349,-5.831909,0.403748,24.0,83.0,-59.0
827.6709401709403,52.015443470689675,,,,,,,34.02004330850358,34.12728597537845,0.06284555968576938,0.0411033439224982,830.7692307692308,57.02307692307691,0.06863888888888886,71.15384615384629,13.194444444444445,60.41666666666666,12.0,171.875,,,0.03816523665120072,0.005468540379405479,0.0018588696406781602,6.979053641979308,0.8389319910747507,0.1202071275149024,-5.208743539215986,2021-10-14 16:02:33,2021-10-14 16:02:33.596,1.7710802632597549,0.7340950706861434,1.104811657685532,1.2091696944740775,0.9433698437812637,0.09197092694945044,-0.068577126599543,0.2290034488362382,1.3599958016623042,0.9951538694402454,0.5011886165122372,1.047172030319641,0.7516679157788021,1.4918857748492118,1.034172071538835,0.6985480373679591,0.4770573420057672,1.3578629096675372,0.6585538481099709,0.3909396489722208,880.4029304029305,781.2820512820513,797.3992673992674,789.7435897435898,780.0732600732601,-0.027344,0.17846700000000001,0.9936520000000001,4.366455,-5.555267,1.136475,19.0,74.0,-55.0
829.101667563206,50.73950884924953,,,,,,,33.986707078231376,34.10268167112719,0.061198174885327264,0.04099220687629412,830.7692307692308,57.02307692307691,0.06863888888888886,69.23076923076928,13.286713286713288,60.13986013986013,11.916666666666664,171.875,,,0.03704342908757563,0.00573131098359949,0.001915546536636533,6.463343062970715,0.8288921799194864,0.12824511585472095,-5.161810981475304,2021-10-14 16:02:34,2021-10-14 16:02:34.597,1.7042197746027792,0.6666124330922624,0.4570248921297747,0.9204972351189166,0.920886206521206,-0.09792443500023773,-0.2284284605693995,0.06827762409346105,1.262607716033895,0.9678478947091737,0.5272023351955646,1.048675976552194,0.8027800028430488,1.3390397644332142,0.9374960628729302,0.7414250953483021,0.4650227735846098,1.316090320348503,0.604846125884144,0.3891208794821633,722.8571428571429,703.1135531135533,783.6996336996338,761.9413919413921,626.5567765567765,-0.023254,0.176086,1.0002440000000001,4.396362,-4.201965,0.32150300000000004,17.0,66.0,-49.0
829.3803418803418,50.2293558456473,,,,,,,33.99570851046226,34.113108938608164,0.06056251071947169,0.0409892865719344,830.7692307692308,45.61846153846162,0.05491111111111121,63.461538461538574,13.194444444444445,61.111111111111114,12.0,226.5625,,,0.03635695002667068,0.006001296540280057,0.0019591462360936344,6.058182558160014,0.8203765548268703,0.13541628152520288,-5.1157797430514975,2021-10-14 16:02:35,2021-10-14 16:02:35.596,1.7042197746027792,0.2260621540508384,0.3964888842521573,0.8861342649815899,0.920886206521206,0.06351600089673921,0.15682751161896302,0.09951410281636776,1.262607716033895,0.6803168310568629,0.5857204685982778,0.5661602621378732,0.8027800028430488,1.317392678022602,0.9366331842903072,0.8113925696502893,0.4650227735846098,1.030580397190985,0.9920580418262188,0.4093220938447564,858.2417582417582,682.967032967033,753.0769230769231,896.9230769230769,932.3809523809523,-0.021240000000000002,0.174927,0.996765,4.104767,-5.52536,0.456085,20.0,70.0,-50.0
830.0213675213677,50.045036566867026,,,,,,,33.757524919385226,33.87549274973675,0.06029367257895165,0.04067066974455474,830.7692307692308,45.61846153846162,0.05491111111111121,63.461538461538574,12.5,61.111111111111114,12.0,226.5625,,,0.03619291368738528,0.006277180714540852,0.001990533054678884,5.76579125777688,0.8140441500226401,0.14118515805175222,-5.070834330107231,2021-10-14 16:02:36,2021-10-14 16:02:36.597,2.3186179152733266,2.019405615119806,1.9222037678906998,2.564949127945142,0.2615992228534081,0.3093696822166726,-0.008278488831599646,0.057027370439654126,1.072477889941863,0.935148058331512,0.6845653907313919,0.7169347371952071,0.5318132746537659,1.25884089184107,0.8179177676651668,0.6465850416505644,0.3697878740853644,1.155197348879498,0.6561235389633202,0.5760411777118101,641.0622710622711,786.1172161172162,803.040293040293,707.948717948718,709.9633699633699,-0.025879000000000003,0.178162,0.99884,3.947754,-5.891724,0.7102970000000001,20.0,63.0,-43.0
829.908552985476,50.15273692105416,,,,,,,33.728249281079364,33.84746706142764,0.0604316424269119,0.04064092261701227,830.7692307692308,45.61846153846162,0.05491111111111121,61.53846153846154,12.587412587412588,60.839160839160854,11.916666666666664,226.5625,,,0.036780890873480084,0.006625575929862453,0.0020135852219708593,5.551349990225479,0.809794115889199,0.14587336725572006,-5.016817978078863,2021-10-14 16:02:37,2021-10-14 16:02:37.597,2.15959636110998,1.789809561098924,2.012291283517488,2.5093509861604892,0.1437789107991977,0.2250124235635236,0.003879005749891154,0.1187214225909917,1.093090206771908,0.9896722632294772,0.6224289719450926,0.8073907277814524,0.5198280379189051,1.3131580908907419,0.8368654560728249,0.496878429528083,0.23633660188679104,1.033403840348766,0.4431577166470732,0.5072772776132511,710.7692307692308,776.4468864468864,794.981684981685,652.3443223443223,627.7655677655678,-0.022705,0.18145799999999998,0.995117,4.329071,-4.98703,0.8822629999999999,22.0,68.0,-46.0
829.5320064550833,50.057474672681764,,,,,,,33.579665962660314,33.68993680616487,0.06034423540400453,0.040480253566296295,830.7692307692308,45.61846153846162,0.05491111111111121,61.53846153846154,11.888111888111887,60.839160839160854,11.916666666666664,226.5625,,,0.037888149298117166,0.006899879843834864,0.0020184180374960823,5.491131752384171,0.809464327699565,0.1474130223424537,-4.976251281467524,2021-10-14 16:02:38,2021-10-14 16:02:38.596,1.781737743736851,0.8939370129682753,0.599903827139449,1.8873141642410367,0.3933742919113895,0.1050173652668351,0.07003352353737846,0.2566984733324141,1.049956027433318,0.7826049397137734,0.5855414509652173,0.8330606877015685,0.5744058723948795,1.276128581620267,0.8401498143632238,0.669728784839294,0.2025771163357389,0.9233655504041872,0.4379512209313795,0.4357597289524323,703.5164835164835,758.7179487179487,787.7289377289377,735.3479853479854,1064.139194139194,-0.017456,0.17639200000000002,0.993469,3.9851379999999996,-6.011353,0.687866,23.0,73.0,-50.0
828.9529914529915,49.26728499777874,,,,,,,33.4991256311177,33.60837739832412,0.05943314700080024,0.040411369494427335,830.7692307692308,45.618461538461546,0.05491111111111112,61.53846153846154,11.805555555555555,61.111111111111114,11.076923076923077,171.875,,,0.040025322260251545,0.007229661733408141,0.002008115052554834,5.536264867731672,0.8124808027749764,0.1467561293012824,-4.929563030433216,2021-10-14 16:02:39,2021-10-14 16:02:39.597,1.313606744241174,0.468714733668845,0.5117043895992116,1.350691432620229,0.278028304510525,0.1897301590797296,0.09685597765779992,0.4061449574406316,1.0256959393333671,0.8030847457074531,0.5413930402983896,0.8613619068177797,0.6638594029611312,1.410628496636022,0.8066410129029277,0.7585872930928536,0.3017378649291718,0.8089761972608864,0.5404685693868595,0.5053652492976403,628.974358974359,189.7802197802198,915.4578754578756,678.5347985347987,711.5750915750915,-0.01593,0.180054,0.992554,4.837494,-4.658051,0.53833,24.0,73.0,-49.0
827.9914529914529,48.459626755253716,,,,,,,33.57315693827194,33.68009216591861,0.058526723410216114,0.04054770954093232,830.7692307692308,45.618461538461546,0.05491111111111112,55.76923076923072,11.805555555555555,61.805555555555564,11.076923076923077,171.875,,,0.0422249518702016,0.007469516610163327,0.0019846767782769072,5.6529698070084775,0.8170597957624058,0.14453638063826665,-4.896924992752756,2021-10-14 16:02:40,2021-10-14 16:02:40.597,1.304677267222323,-0.1260638937460413,0.6456871347384716,1.1926675093674,0.09836108919591416,0.1550681958474458,0.03175673386161105,0.2913915500743157,0.6707347758275463,0.6737462616584552,0.2160950610111581,0.6547860198484755,0.7678712489383976,1.3401851469253891,0.8821393703930548,0.7332692598065232,0.3104032426624613,0.7495111449288452,0.5877772442429487,0.5636926484852559,884.4322344322345,720.8424908424909,776.0439560439563,803.8461538461539,791.3553113553114,-0.008484,0.184204,0.996338,4.231873,-5.016937,1.031799,32.0,79.0,-47.0
827.1901709401709,47.826194571562546,,,,,,,33.579318846544126,33.68761854991687,0.05781765336646115,0.04059443647447892,830.7692307692308,45.61846153846145,0.05491111111111102,53.84615384615381,11.805555555555555,61.805555555555564,11.076923076923077,171.875,,,0.04475928898183733,0.0076824261247927655,0.0019488367554043944,5.826191915779043,0.8229239720783208,0.14124559986594334,-4.868819880043257,2021-10-14 16:02:41,2021-10-14 16:02:41.604,0.8213630327753076,-0.1260638937460413,0.8079027667528405,1.0477604531973872,0.4767142840659904,0.1550681958474458,0.2516469303607786,0.3847696223441428,0.8681464030736946,0.6737462616584552,0.5276847344927038,1.158248152071283,0.8712609645028893,1.3401851469253891,1.150891716456009,0.9219050573407596,0.3521362320782547,0.7495111449288452,0.5851885804345851,0.5788245758372138,762.7472527472528,780.8791208791209,782.4908424908424,790.952380952381,735.7509157509156,-0.009094,0.18591300000000002,0.993958,4.530945,-4.98703,-0.089722,42.0,86.0,-44.0
826.602564102564,47.15495752779349,,,,,,,33.52382089848277,33.64009625781103,0.057046710929319774,0.04055615401444988,830.7692307692308,45.61846153846145,0.05491111111111102,53.84615384615381,11.805555555555555,61.805555555555564,10.285714285714286,171.875,,,0.0482003988536703,0.00789681101145508,0.0018867632708140735,6.103780220110498,0.8312710607234134,0.1361895466000846,-4.841296270441666,2021-10-14 16:02:42,2021-10-14 16:02:42.607,1.114034711046697,0.1963712677454495,1.092659805972818,1.197916052855811,0.3634956302518384,0.03513131155374927,0.4825166227522178,0.2372430896921837,0.8326484859714646,0.2113644264462869,0.5980000198494234,0.6400326997979834,0.7610799606436546,1.4053859260177053,1.064464835791852,0.8672659478055418,0.4228595208900385,0.6342882471185722,0.6463547726510754,0.546021617195207,855.4212454212454,812.3076923076924,811.098901098901,776.4468864468864,844.945054945055,-0.004761,0.18676800000000002,0.98761,3.8505550000000004,-4.8823550000000004,0.231781,52.0,94.0,-42.0
826.2820512820513,46.91412537301576,,,,,,,32.900878833702286,33.0158176783714,0.0567773743847204,0.03981797593527972,830.7692307692308,45.61846153846145,0.05491111111111102,53.84615384615381,11.111111111111109,61.111111111111114,9.6,171.875,,,0.05099957466895594,0.008021323728011698,0.0018252090538138886,6.357999801311792,0.8381731684349659,0.13182969402767722,-4.82565181735548,2021-10-14 16:02:43,2021-10-14 16:02:43.604,1.0201744259083108,0.4507083608943305,0.6672669131160395,0.7678216831690522,0.4380894842474306,0.003855709035975196,0.3033680217232327,0.3114142504601836,0.746655643945539,0.6818601426538908,0.5858108003518631,0.8371350355436946,0.5422234961587519,1.344753875678683,0.8011734953487986,0.7029992573959745,0.181424939463677,0.8089904038784316,0.5786156406415427,0.5550814095169981,875.9706959706958,787.3260073260074,802.6373626373628,794.1758241758242,803.040293040293,-0.002258,0.188721,0.9940190000000001,4.373932,-5.15152,1.1514280000000001,63.0,100.0,-37.0
826.358257127488,47.07008134814622,,,,,,,32.88373627913917,32.999019792361906,0.056960865268977874,0.03979355926501739,830.7692307692308,45.61846153846145,0.05491111111111102,53.84615384615381,11.188811188811188,61.53846153846154,9.533333333333333,171.875,,,0.054297512183874234,0.008111913744439349,0.0017327547248412046,6.693551471882298,0.846518026530544,0.12646769507734795,-4.814421465271776,2021-10-14 16:02:44,2021-10-14 16:02:44.597,0.6725822563632293,0.6254317784612398,0.04910551365670891,0.3402857503384987,0.3949211285805848,-0.05687409847060727,-0.1578762310092863,-0.1045458256904123,0.8938506025123572,0.7075364969213158,0.3920099988241553,0.783961891455281,0.4148036982355476,1.16410692759802,0.726993079467473,0.6393145778135023,0.034311200575849465,0.7760595256897267,0.3842154327149456,0.3357060498748221,761.9413919413921,812.3076923076924,814.7252747252749,783.2967032967032,949.3040293040292,-0.004639,0.186646,0.992188,4.673004,-5.884247,0.672913,74.0,100.0,-26.0
827.2435897435896,46.87331464812053,,,,,,,32.92602280285462,33.02746602221549,0.05666204637820073,0.039802088781443784,830.7692307692308,45.61846153846145,0.05491111111111102,53.84615384615381,11.111111111111109,61.805555555555564,9.6,171.875,,,0.05663349214826832,0.008134747266517459,0.0016524077690822708,6.961923990112298,0.852648905866476,0.122473170789778,-4.811610606216299,2021-10-14 16:02:45,2021-10-14 16:02:45.603,0.3198153003875315,0.5679604577137612,0.040872091596329235,0.5373315766669001,0.08591758374527499,-0.1380794078536883,0.022707372889577682,0.1329444215459401,1.1076291035718608,0.5616199179139006,0.1718749749628166,1.11254989998307,0.4768771216610966,1.029694636657821,0.7302351402790672,0.8781458969979159,0.1900833069033074,0.8235215401280814,0.3644899324000405,0.2744957711583348,901.7582417582418,940.4395604395604,806.6666666666667,830.8424908424909,778.4615384615387,-0.001953,0.1922,0.9951780000000001,4.1346739999999995,-4.9272160000000005,0.755157,75.0,95.0,-20.0
828.1517094017095,46.40565336873665,,,,,,,32.9071666271345,33.006902154407356,0.05603520809280462,0.03973567433786737,830.7692307692308,45.61846153846145,0.05491111111111102,53.84615384615381,11.111111111111109,61.805555555555564,9.6,171.875,,,0.05856139664047739,0.008115336670636467,0.001566728734559866,7.216138900603928,0.8581246449847993,0.11891742340394552,-4.8139995914286615,2021-10-14 16:02:46,2021-10-14 16:02:46.600,0.3323563507871327,0.4542199868723716,1.18067371932727,0.6358235557092357,0.2534259491410878,-0.01265097034503097,0.6244434619074358,0.3547589616345308,1.076735216856814,0.2286880239428232,0.4787174872964953,0.9756722782503298,0.6161339688970853,1.113587696631377,0.7303335901491951,0.9682231124153362,0.1809925054570399,0.8991520394682229,0.3326099859942552,0.13157117622141698,788.1318681318681,792.9670329670329,804.2490842490844,776.8498168498169,600.7692307692307,-0.00647,0.19128399999999998,0.9984129999999999,4.187012,-4.979553,0.762634,75.0,94.0,-19.0
828.792735042735,45.574147944626475,,,,,,,33.05771487763268,33.17175892090116,0.05498859487743524,0.03988658862451072,830.7692307692308,39.91615384615382,0.04804722222222218,53.84615384615381,11.805555555555555,61.805555555555564,9.6,171.875,,,0.059989550770947024,0.008057073520748656,0.0014790030016923498,7.445575694011147,0.8628408416625981,0.11588638368912488,-4.821204875151307,2021-10-14 16:02:47,2021-10-14 16:02:47.597,0.8456813462713328,0.4542199868723716,0.9215916986376721,0.2984350672555797,0.8062206237104459,-0.01265097034503097,0.5374900767603511,0.6232514836849651,1.199675549467152,0.2286880239428232,0.8210306359765559,0.9126951904636692,0.6799843034173879,1.113587696631377,0.9226666160708864,0.6586953567868085,0.1460998338403355,0.8991520394682229,0.3489248795084742,0.4448287088449137,882.8205128205127,821.978021978022,814.3223443223442,794.1758241758242,769.1941391941392,-0.004883,0.19622799999999999,0.997009,3.282318,-5.166473000000001,0.56076,73.0,89.0,-16.0
829.424421732114,45.29090979403486,,,,,,,32.97232068206499,33.088992569197394,0.05460522816467398,0.03975325517086635,830.7692307692308,34.21384615384618,0.04118333333333336,46.15384615384608,11.888111888111887,60.839160839160854,9.533333333333333,171.875,,,0.06102637421664602,0.007947182451968168,0.0013704393136881542,7.678994987906999,0.8675420462607709,0.11297598808528846,-4.834937821690915,2021-10-14 16:02:48,2021-10-14 16:02:48.603,0.2557925822591812,1.487394167903771,0.05189934667229435,0.1652671430626753,0.5777476706078809,0.5236887478284419,0.060003966352311575,0.3325030976819758,1.352271096297252,0.7064401216589032,0.7905387399468742,1.1183329094444379,0.5210062292422433,0.9326436673855713,0.7376678086526298,0.6985962310181806,0.06707620583206897,0.7919224107528183,0.4387864094031815,0.4522363848828576,857.4358974358977,765.9706959706958,790.5494505494507,813.5164835164835,670.8791208791207,0.002441,0.190918,0.9937739999999999,3.798218,-4.5159910000000005,0.239258,70.0,84.0,-14.0
828.7393162393163,45.63076465235269,,,,,,,33.101495807638486,33.21503860772501,0.0550604559940726,0.039941987979824185,830.7692307692308,39.91615384615382,0.04804722222222218,53.84615384615381,11.805555555555555,61.111111111111114,9.6,171.875,,,0.061252474362241974,0.007843477836854735,0.0012890255171046435,7.809351366358227,0.8702492541692282,0.1114368163684068,-4.8480729413423065,2021-10-14 16:02:49,2021-10-14 16:02:49.603,0.3488825038661815,1.3024262577833507,0.06476753823353644,0.4200328439623133,0.3559624121687367,0.4077269289399002,0.04735361628463531,0.1473806522379634,1.169943218281377,0.4924278001765509,0.274902385098951,1.044588034182566,0.5335487750702221,0.7309095023743739,0.5752308819951973,0.6477879857322811,0.3310442430886468,0.7756474182493555,0.5058740838882925,0.3985443943121657,939.2307692307692,1049.230769230769,1318.7912087912089,858.2417582417582,799.4139194139194,-0.003052,0.194702,0.989807,4.388885,-5.3085330000000015,0.30654899999999996,69.0,80.0,-11.0
828.2585470085471,46.1343859019838,,,,,,,32.34276638104412,32.43848825281233,0.05570046462980565,0.039049118778016506,830.7692307692308,45.61846153846145,0.05491111111111102,53.84615384615381,11.111111111111109,60.41666666666666,9.6,171.875,,,0.06082413749595635,0.007717549911689533,0.0011964764052432638,7.881275559206675,0.8721786489697442,0.11066465604681094,-4.864258334269769,2021-10-14 16:02:50,2021-10-14 16:02:50.597,0.5279160804245281,1.114251997565268,0.2326734509344784,1.392532181014715,0.5236315279933901,0.5134347532396605,0.2825044033585515,0.3939695406512234,1.014301028042081,0.4613809887446884,0.2082368053969774,0.8366334712822919,0.6130963210385082,0.741090329935056,0.4520441864623213,0.5655246334918054,0.3927721940999886,0.7017703492175796,0.5944018126662302,0.4917687758680021,801.4285714285713,809.0842490842491,756.7032967032968,809.8901098901099,884.4322344322345,0.007019,0.195984,0.9907229999999999,4.224396,-4.9646,0.927124,71.0,79.0,-8.0
827.2970085470083,46.07155889492626,,,,,,,32.361951414692314,32.46273367772774,0.05568926083250595,0.039117694226321435,830.7692307692308,45.61846153846145,0.05491111111111102,53.84615384615381,11.111111111111109,60.41666666666666,9.6,171.875,,,0.059959681200066624,0.007631903168123157,0.0011316771404091773,7.856452038137162,0.8724801454972303,0.1110526916300126,-4.87541803253153,2021-10-14 16:02:51,2021-10-14 16:02:51.597,1.1130609785837342,1.114251997565268,1.368970204431186,1.242373610858847,0.1589122322150466,0.5134347532396605,1.016218004700234,0.3707594380963155,1.084110699096822,0.4613809887446884,0.4364790401680867,0.7551329689439901,0.3882477151376447,0.741090329935056,0.7066993798346739,0.4661940624897807,0.1896945104674172,0.7017703492175796,0.5669048905090562,0.5628786689777238,699.4871794871796,782.0879120879123,768.7912087912088,763.956043956044,864.6886446886447,0.000305,0.20165999999999998,0.990051,4.067383,-5.600128,0.067291,74.0,79.0,-5.0
826.4957264957267,45.936171088520496,,,,,,,32.07297096536723,32.18280852013811,0.055579441751364006,0.038805973143205434,830.7692307692308,45.61846153846145,0.05491111111111102,53.84615384615381,10.416666666666668,59.72222222222222,9.6,171.875,,,0.058667464087994226,0.007568039885484045,0.001075692833742285,7.752002496778848,0.8715855143092761,0.11243359566401608,-4.883821176965786,2021-10-14 16:02:52,2021-10-14 16:02:52.597,1.0206880082421852,1.835418657437864,1.3591989399770301,0.9759439655212864,-0.01141084029413327,0.4131107949686671,0.9542701959891784,0.4540130279978624,1.170073039008165,0.8717284282232461,0.5085316382763978,0.8576591202279544,0.4500307109669157,0.9032642206889931,0.8088309972577801,0.48334990277365797,0.2015335513342701,0.4729445846541595,0.5104794380328718,0.5314578878584453,867.5091575091576,776.4468864468864,795.3846153846154,790.1465201465203,831.6483516483516,0.004639,0.197571,0.990662,4.344025,-5.824432,0.426178,79.0,78.0,1.0
826.1217948717949,46.01214350696473,,,,,,,32.18887447044298,32.30183631066144,0.0556965616844733,0.03896383641039073,830.7692307692308,45.61846153846145,0.05491111111111102,53.84615384615381,10.416666666666668,60.41666666666666,10.285714285714286,171.875,,,0.05665925037198578,0.007543534354114905,0.0010206535757542171,7.510968693485018,0.8686946264587593,0.11565680299163825,-4.887064459559841,2021-10-14 16:02:53,2021-10-14 16:02:53.597,0.49887920158946497,1.321524921865614,0.8407802014845115,0.362292191306643,0.0969144407871664,0.4712946378352585,0.369455061675698,0.2868978575152263,1.1534981066393228,0.7403993479673001,0.48027626747292695,0.8964583052192079,0.4379199432676498,0.7333366680578962,0.7289804524900142,0.4237228801397023,0.0615425670216188,0.455652814157645,0.3687280217028103,0.5169211432382017,788.5347985347986,792.9670329670329,796.5934065934067,772.0146520146519,952.1245421245419,0.007751000000000002,0.204285,0.9862059999999999,4.164581,-5.00946,0.971985,82.0,78.0,4.0
826.4423076923077,46.258790049973115,,,,,,,32.495929509457945,32.60568282147525,0.055973405063376426,0.039320263746173666,830.7692307692308,45.61846153846145,0.05491111111111102,53.84615384615381,11.111111111111109,60.41666666666666,11.076923076923077,171.875,,,0.0548897183224824,0.0075855197064811815,0.0009897305673563133,7.236118347380182,0.8648821473720111,0.11952294114774112,-4.881514150864903,2021-10-14 16:02:54,2021-10-14 16:02:54.598,0.1164053478880479,1.036866641472252,0.3758143638005891,0.3756303615137529,0.05006436704368458,0.296120139680539,0.09403988401571202,0.005856650868086533,1.0986230312266172,0.5296272892577026,0.2419287960678583,0.9299959255110748,0.5608009402980727,0.8917887739923464,0.6408639472962436,0.5507884585118074,0.07806292774449594,0.4912065430579162,0.2919407828130092,0.3997139130157324,850.5860805860806,782.0879120879123,777.6556776556778,780.8791208791209,743.4065934065933,0.0047,0.205139,0.9972530000000001,4.216919,-5.398254,0.9196469999999999,85.0,67.0,18.0
827.0299145299145,46.55541736835572,,,,,,,32.44495547100308,32.55022576770704,0.05629230158478357,0.03923069153967043,830.7692307692308,45.618461538461546,0.05491111111111112,53.84615384615381,11.111111111111109,59.72222222222222,11.076923076923077,171.875,,,0.0530631270815156,0.007688149123411861,0.000970077692250782,6.901937804500747,0.8597207243689695,0.12456222422177528,-4.868075210596454,2021-10-14 16:02:55,2021-10-14 16:02:55.596,0.5099119587981512,0.6804887502599702,0.5049889156592753,1.6412119042430542,0.3415431939462504,0.5372021243862594,0.02756182799666576,0.9610222569540484,1.248766810333019,0.8411977484101294,0.3738784214723094,0.9208971120783302,0.5114604112476068,0.7175303666539296,0.5596897928451539,0.7162398955540741,0.1054831864518406,0.6161598146769537,0.3420177859866037,0.41552074893535496,790.952380952381,860.6593406593408,803.8461538461539,778.8644688644687,593.5164835164835,0.007019,0.200012,0.990662,4.299164,-4.867401,0.635529,76.0,52.0,24.0
827.6709401709401,46.602796252651856,,,,,,,32.444955471003084,32.554522590884126,0.0563059471956656,0.0392003076298682,830.7692307692308,45.618461538461546,0.05491111111111112,55.76923076923072,11.111111111111109,59.72222222222222,11.076923076923077,171.875,,,0.051256362820662704,0.007854360104110973,0.0009617100416334424,6.525848336624535,0.8532426653890576,0.13074816044995513,-4.846686474105173,2021-10-14 16:02:56,2021-10-14 16:02:56.597,0.8286055633299136,0.687504195923485,1.0458648198770408,1.8256914612389117,0.5590048810640932,0.6239047449837731,0.656104208732438,1.094718766066618,1.2264096397242659,0.8396157502463834,1.027878717072994,0.7858366764710841,0.5297937461840565,0.7370492982004588,0.7578023777169598,0.7205555956998269,0.021517086124211385,0.6969631690700739,0.2995733274865469,0.4148438973610677,827.6190476190477,805.8608058608058,781.2820512820513,816.3369963369963,1136.666666666667,0.000977,0.202576,0.990417,3.5813900000000003,-5.293579,1.1589049999999999,73.0,41.0,32.0
828.9402904787521,46.58482457254803,,,,,,,32.198650014483995,32.300918827910735,0.056198045996344426,0.03884314755154169,830.7692307692308,45.61846153846145,0.05491111111111102,61.53846153846154,10.48951048951049,59.44055944055943,11.0,171.875,,,0.04916532212482064,0.008156772130158852,0.0009676311233577153,6.0275463553820225,0.8434646381623276,0.13993498986684602,-4.808906760549932,2021-10-14 16:02:57,2021-10-14 16:02:57.597,0.5222075285286657,1.3349813019079528,1.217852798923647,0.6283789676212447,0.05156597969858361,0.1332433275576038,0.8655786841863043,0.4668622846580655,0.945354333031202,0.3476106442190963,1.027878717072994,0.8051557086898012,0.3646568477178241,0.7189021247486465,0.8883623774816134,0.6111508046853127,0.5060857561416117,0.4910478774973597,0.2614970599392262,0.1926598522049294,722.4542124542122,784.1025641025641,779.2673992673992,776.4468864468864,780.8791208791209,0.007506999999999998,0.20605500000000002,0.9932860000000001,3.925323,-5.450591999999999,0.19439700000000001,66.0,35.0,31.0
829.6395911780528,46.549030809682954,,,,,,,32.02346210479277,32.134566727633036,0.05610753308383621,0.03859924531725978,830.7692307692308,45.61846153846145,0.05491111111111102,61.53846153846154,10.48951048951049,59.44055944055943,11.0,171.875,,,0.047656440260596636,0.008465138756432018,0.0009833679773516523,5.629729367919233,0.8345413623321725,0.14823827359939712,-4.7717988717496915,2021-10-14 16:02:58,2021-10-14 16:02:58.597,1.076992301138065,0.9706188397700052,0.8279624148283954,1.127154977585676,0.1564983620631621,0.0502345443644944,-0.1113145111564141,0.2052432206245517,1.3498769572704958,0.4927202201877876,0.3904634746430826,1.149850605770525,0.4298884870061452,0.8227552542726544,0.6708571793536535,0.4926819731223845,0.2782014782193403,0.4615207639828337,0.3537240016636509,0.1850989551945369,880.0,809.8901098901099,813.1135531135533,774.4322344322345,842.1245421245421,0.009766,0.204224,0.9938959999999999,4.0000919999999995,-5.8543400000000005,0.814972,59.0,34.0,25.0
829.8547606239915,46.589578317565575,,,,,,,31.663599742117967,31.768986494247716,0.056141846173821466,0.03815559209217431,838.4615384615386,45.61846153846145,0.0544073394495412,61.53846153846154,9.79020979020979,59.44055944055943,11.0,171.875,,,0.04620632377088335,0.008953499773178664,0.0010212031251102273,5.16069971982355,0.8224542431909272,0.1593687460697767,-4.715710787020718,2021-10-14 16:02:59,2021-10-14 16:02:59.596,1.161993326690255,0.5724586511826466,0.8174978689474284,1.245154078521552,0.7530396534433589,0.005438583798711275,0.1838378240609453,0.5311813721729188,1.3628554436781808,0.6160527150220098,0.5220839102209619,1.2365987625884758,0.5969589559066819,0.975020746700097,0.618530163419817,0.3984157145820926,-0.02119647910292623,0.5332677306917349,0.3033535325855556,0.40441164700619,818.7545787545787,830.8424908424909,807.4725274725273,786.5201465201468,1090.3296703296699,0.016296,0.199768,0.990417,4.007568,-5.129089,0.5757140000000001,56.99999999999999,34.0,22.999999999999996
