HRV_MeanNN,HRV_SDNN,HRV_SDANN1,HRV_SDNNI1,HRV_SDANN2,HRV_SDNNI2,HRV_SDANN5,HRV_SDNNI5,HRV_RMSSD,HRV_SDSD,HRV_CVNN,HRV_CVSD,HRV_MedianNN,HRV_MadNN,HRV_MCVNN,HRV_IQRNN,HRV_pNN50,HRV_pNN20,HRV_HTI,HRV_TINN,HRV_ULF,HRV_VLF,HRV_LF,HRV_HF,HRV_VHF,HRV_LFHF,HRV_LFn,HRV_HFn,HRV_LnHF,Time,TimeStamp,Delta_TP9,Delta_AF7,Delta_AF8,Delta_TP10,Theta_TP9,Theta_AF7,Theta_AF8,Theta_TP10,Alpha_TP9,Alpha_AF7,Alpha_AF8,Alpha_TP10,Beta_TP9,Beta_AF7,Beta_AF8,Beta_TP10,Gamma_TP9,Gamma_AF7,Gamma_AF8,Gamma_TP10,RAW_TP9,RAW_AF7,RAW_AF8,RAW_TP10,AUX_RIGHT,Accelerometer_X,Accelerometer_Y,Accelerometer_Z,Gyro_X,Gyro_Y,Gyro_Z,Attention,Meditation,A_M
842.0076377523186,53.645763151012055,,,,,,,37.77407591849463,37.90569974629171,0.06371172985344377,0.044861916002721686,838.4615384615386,57.02307692307691,0.06800917431192659,61.53846153846154,16.312056737588655,61.70212765957447,10.071428571428571,125.0,,,0.03835817139683469,0.007459401448607165,0.0011489764509551505,5.14225861969086,0.8167125746190875,0.1588237066668938,-4.898280102756607,2021-10-14 16:22:00,2021-10-14 16:22:00.781,1.174598136068328,1.20524287038477,0.4834839546011765,0.9775617817224588,0.5080072082470309,0.8625332221041321,0.4318720787512798,0.7383533010754284,1.2540792196975281,0.8574070822964555,0.9318124401666608,1.64062166130864,0.9921132777701198,1.174453348753846,1.4086603083562181,1.2206742327418991,0.6587714212378581,0.8545724301224874,1.2493485193670868,1.1283621945344309,809.4871794871796,1562.564102564103,967.0329670329672,826.8131868131868,731.3186813186812,0.007141,-0.09033200000000001,0.999268,7.611389,11.521759,14.011535999999998,28.000000000000004,20.0,8.000000000000004
842.3349699945444,53.90596453302725,,,,,,,37.85790043740299,37.9928354867796,0.06399587628823766,0.044943997086631916,838.4615384615386,57.02307692307691,0.06800917431192659,61.53846153846154,16.312056737588655,62.411347517730505,10.071428571428571,125.0,,,0.03694401865250942,0.007488425661286462,0.001086513994565815,4.933482727017241,0.8116182800633843,0.16451223708937254,-4.894396695631046,2021-10-14 16:22:01,2021-10-14 16:22:01.781,0.7765630891442562,1.20524287038477,0.4834839546011765,1.164186575339806,0.3154490246516048,0.8625332221041321,0.4318720787512798,0.8908092231527976,1.522275200322614,0.8574070822964555,0.9318124401666608,1.22933921452635,1.4232847992756081,1.174453348753846,1.4086603083562181,1.2564621719585458,0.7267512254294356,0.8545724301224874,1.2493485193670868,1.2779195869105602,757.1062271062273,1265.6043956043961,917.8754578754581,798.6080586080586,663.2234432234433,-0.10199,-0.112427,1.008606,2.422485,-2.8411869999999997,17.488251,31.0,16.0,15.0
842.3349699945444,53.90596453302725,,,,,,,37.94710916300802,38.083005636748254,0.06399587628823766,0.04504990355945188,838.4615384615386,57.02307692307691,0.06800917431192659,61.53846153846154,16.312056737588655,62.411347517730505,10.071428571428571,125.0,,,0.0350807760392815,0.007505354481073386,0.0010106620405849972,4.67409982136705,0.8046641502409921,0.17215382233870422,-4.8921385823574575,2021-10-14 16:22:02,2021-10-14 16:22:02.781,0.9940822752007696,1.20524287038477,0.4834839546011765,1.164186575339806,0.5464513003502723,0.8625332221041321,0.4318720787512798,0.8908092231527976,1.4338506199089407,0.8574070822964555,0.9318124401666608,1.22933921452635,1.1789159814013301,1.174453348753846,1.4086603083562181,1.2564621719585458,0.8716392472594298,0.8545724301224874,1.2493485193670868,1.2779195869105602,778.4615384615387,1621.794871794872,1299.8534798534802,991.6117216117217,583.040293040293,-0.133545,-0.152283,0.993347,1.996307,-6.7141720000000005,24.41925,33.0,18.0,15.0
842.7168576104747,54.12350495488004,,,,,,,37.94710916300802,38.083005636748275,0.06422501753239795,0.04502948863584755,838.4615384615386,57.02307692307691,0.06800917431192659,61.53846153846154,16.312056737588655,62.411347517730505,10.071428571428571,125.0,,,0.03356321287182403,0.007503665950652575,0.0009545671030886453,4.472908721223806,0.7987162776663199,0.17856753344338042,-4.89236358444012,2021-10-14 16:22:03,2021-10-14 16:22:03.781,1.05045753331023,1.20524287038477,0.4834839546011765,1.164186575339806,0.5007367852940005,0.8625332221041321,0.4318720787512798,0.8908092231527976,0.9569887721275,0.8574070822964555,0.9318124401666608,1.22933921452635,0.9761606270062524,1.174453348753846,1.4086603083562181,1.2564621719585458,0.9610931142939976,0.8545724301224874,1.2493485193670868,1.2779195869105602,811.5018315018315,474.2490842490843,865.8974358974359,830.8424908424909,895.7142857142858,-0.131775,-0.133179,0.9970700000000001,3.3496089999999996,-6.3029480000000015,4.583282,39.0,16.0,23.0
842.4440807419529,54.04674440357207,,,,,,,38.296348556542036,38.43243424086555,0.06415469660131305,0.045458623820840274,838.4615384615386,57.02307692307691,0.06800917431192659,61.53846153846154,17.02127659574468,63.12056737588654,10.071428571428571,125.0,,,0.03212902542238092,0.007500064380382403,0.0009077941200453947,4.283833283674129,0.7925874490886315,0.18501827606345375,-4.892843674425729,2021-10-14 16:22:04,2021-10-14 16:22:04.781,0.7823489645214371,1.20524287038477,0.4834839546011765,1.164186575339806,0.2887178130923318,0.8625332221041321,0.4318720787512798,0.8908092231527976,0.7216893643084265,0.8574070822964555,0.9318124401666608,1.22933921452635,0.9756323876719948,1.174453348753846,1.4086603083562181,1.2564621719585458,0.6954672427087882,0.8545724301224874,1.2493485193670868,1.2779195869105602,813.9194139194141,1519.450549450549,798.2051282051282,882.4175824175826,799.8168498168499,-0.087891,-0.164856,0.9966430000000001,-0.26168800000000003,-12.426453,9.899291999999999,41.0,31.0,10.0
842.6868905742143,53.9790851142309,,,,,,,38.14930546868011,38.282805032470854,0.06405592126566614,0.0452710323316942,838.4615384615386,57.02307692307691,0.06800917431192659,61.53846153846154,16.901408450704224,63.38028169014085,10.142857142857142,125.0,,,0.030813026098745082,0.007496971843267416,0.0008723682480580473,4.11006293513246,0.7864003401242677,0.191335352410832,-4.893256094201568,2021-10-14 16:22:05,2021-10-14 16:22:05.785,0.6412391328252226,1.20524287038477,0.4834839546011765,1.164186575339806,0.2504757659640954,0.8625332221041321,0.4318720787512798,0.8908092231527976,0.9093899594258014,0.8574070822964555,0.9318124401666608,1.22933921452635,1.142183323772497,1.174453348753846,1.4086603083562181,1.2564621719585458,0.9135999229146828,0.8545724301224874,1.2493485193670868,1.2779195869105602,786.5201465201468,1572.234432234432,785.7142857142858,786.1172161172162,736.1538461538463,-0.079529,-0.168945,1.000916,3.386993,-7.723541,5.585175,42.0,40.0,2.0
843.153300600109,54.321084872689106,,,,,,,38.147066040605786,38.28368237801368,0.0644261071314391,0.04524333358293784,846.1538461538463,45.61846153846162,0.05391272727272737,61.53846153846154,17.02127659574468,63.12056737588654,10.071428571428571,125.0,,,0.029285215917235763,0.007476666510776765,0.0008443410281869183,3.916881390259209,0.7787332315180414,0.19881460629741124,-4.895968239968316,2021-10-14 16:22:06,2021-10-14 16:22:06.781,0.8063391416833766,1.20524287038477,0.4834839546011765,1.164186575339806,0.7297603344176102,0.8625332221041321,0.4318720787512798,0.8908092231527976,1.29810552770814,0.8574070822964555,0.9318124401666608,1.22933921452635,1.0020119359929691,1.174453348753846,1.4086603083562181,1.2564621719585458,0.9484293664741694,0.8545724301224874,1.2493485193670868,1.2779195869105602,838.901098901099,1271.245421245421,836.0805860805863,842.9304029304027,745.0183150183151,-0.07928500000000001,-0.14801,0.9957280000000001,2.706604,-4.717865,1.136475,45.0,40.0,5.0
843.2624113475177,54.38924710286088,,,,,,,38.15260543888383,38.28944025130951,0.06449860253577278,0.04524404850195644,846.1538461538463,45.61846153846162,0.05391272727272737,61.53846153846154,17.02127659574468,63.12056737588654,10.071428571428571,125.0,,,0.028280615720600626,0.007472319288768951,0.0008391229141998061,3.7847172514572502,0.7728621270678724,0.20420604122283986,-4.89654984760226,2021-10-14 16:22:07,2021-10-14 16:22:07.781,0.9923612709747314,1.20524287038477,0.4834839546011765,1.164186575339806,0.9104155282317375,0.8625332221041321,0.4318720787512798,0.8908092231527976,1.318988613260769,0.8574070822964555,0.9318124401666608,1.22933921452635,0.9872193849110804,1.174453348753846,1.4086603083562181,1.2564621719585458,0.8777363124226882,0.8545724301224874,1.2493485193670868,1.2779195869105602,834.0659340659341,969.047619047619,805.054945054945,882.0146520146519,900.952380952381,-0.057861,-0.15332,1.0083010000000001,4.022522,-6.183319,3.005676,47.0,42.0,5.0
843.153300600109,54.35219862982874,,,,,,,38.21901559434578,38.35624768972304,0.06446300879228475,0.04532866747617975,846.1538461538463,45.61846153846162,0.05391272727272737,61.53846153846154,17.02127659574468,63.829787234042556,10.071428571428571,125.0,,,0.027308617334718,0.007486754131584769,0.0008547960002832241,3.647591046099628,0.7660165232130728,0.21000614200766146,-4.894619935649764,2021-10-14 16:22:08,2021-10-14 16:22:08.781,0.3901585609164843,1.20524287038477,0.4834839546011765,1.164186575339806,0.1312457866057751,0.8625332221041321,0.4318720787512798,0.8908092231527976,0.5989753318256631,0.8574070822964555,0.9318124401666608,1.22933921452635,0.9900923787789908,1.174453348753846,1.4086603083562181,1.2564621719585458,0.9688164890329888,0.8545724301224874,1.2493485193670868,1.2779195869105602,776.0439560439563,521.3919413919414,778.8644688644687,772.4175824175826,645.4945054945055,-0.061767999999999997,-0.15118399999999999,1.002258,4.396362,-4.934692,0.456085,44.0,38.0,6.0
842.8805237315877,54.39464789687661,,,,,,,38.351490915637676,38.48856667521306,0.06453423274755653,0.045500506697970136,838.4615384615386,57.02307692307691,0.06800917431192659,61.53846153846154,17.02127659574468,64.53900709219859,9.4,125.0,,,0.026757185821681326,0.0075165922292651155,0.0008846404009791873,3.559749552131462,0.7610463439437172,0.21379210329221826,-4.890642404730844,2021-10-14 16:22:09,2021-10-14 16:22:09.781,0.1323425518486992,1.20524287038477,0.4834839546011765,1.164186575339806,0.2095706998944301,0.8625332221041321,0.4318720787512798,0.8908092231527976,0.6747140800742605,0.8574070822964555,0.9318124401666608,1.22933921452635,0.8881628279459216,1.174453348753846,1.4086603083562181,1.2564621719585458,0.9113175602790804,0.8545724301224874,1.2493485193670868,1.2779195869105602,815.934065934066,1045.6043956043961,833.6630036630037,759.9267399267401,608.021978021978,-0.045531999999999996,-0.172913,1.0029299999999999,4.620667,-6.7889399999999975,2.0561220000000002,39.0,42.0,-3.0
842.3076923076924,54.39861548548832,,,,,,,38.154805260457934,38.29079081120347,0.06458283116998613,0.04529794231835189,838.4615384615386,57.02307692307691,0.06800917431192659,69.23076923076917,16.901408450704224,63.38028169014085,9.466666666666667,125.0,,,0.026356518595187887,0.0075555908029918935,0.0009273089125305439,3.488346481753767,0.7565143126136918,0.21686902851271644,-4.885467486051264,2021-10-14 16:22:10,2021-10-14 16:22:10.780,0.6051904132615132,1.20524287038477,0.4834839546011765,1.164186575339806,-0.08180551874608642,0.8625332221041321,0.4318720787512798,0.8908092231527976,0.6740793369315125,0.8574070822964555,0.9318124401666608,1.22933921452635,0.8605333045943806,1.174453348753846,1.4086603083562181,1.2564621719585458,0.9277697742394956,0.8545724301224874,1.2493485193670868,1.2779195869105602,813.9194139194141,1261.575091575092,524.2124542124542,789.3406593406594,779.2673992673992,-0.042908,-0.21038800000000002,0.991699,4.299164,-6.071167,5.383301,35.0,32.0,3.0
842.0910075839653,54.5676367198452,,,,,,,38.204267758336776,38.339843324491206,0.06480016557403295,0.04536833598063022,838.4615384615386,57.02307692307691,0.06800917431192659,69.23076923076917,16.901408450704224,64.08450704225352,10.142857142857142,125.0,,,0.02621305864751636,0.007642877541793631,0.0009856588687679982,3.429736837228544,0.7523495581594761,0.21936072470429674,-4.8739811051193245,2021-10-14 16:22:11,2021-10-14 16:22:11.782,1.07320588841835,1.20524287038477,0.4834839546011765,1.164186575339806,0.45468581143665,0.8625332221041321,0.4318720787512798,0.8908092231527976,0.7962193316134842,0.8574070822964555,0.9318124401666608,1.22933921452635,0.8573098694934169,1.174453348753846,1.4086603083562181,1.2564621719585458,0.9363362505299132,0.8545724301224874,1.2493485193670868,1.2779195869105602,812.7106227106227,0.0,910.6227106227108,704.7252747252749,622.9304029304029,-0.08001699999999999,0.020874,0.9974370000000001,22.983704,3.962708,-58.102264,30.0,27.0,3.0
842.4440807419529,54.55268678598795,,,,,,,38.13598483019317,38.27097228186029,0.06475526154560025,0.045268268484486514,838.4615384615386,57.02307692307691,0.06800917431192659,69.23076923076917,17.02127659574468,63.12056737588654,10.846153846153848,125.0,,,0.02622720253238869,0.00778718469569188,0.001071598376755478,3.3679954383126964,0.7475122069472001,0.22194573022393704,-4.855275884202933,2021-10-14 16:22:12,2021-10-14 16:22:12.781,1.328260988571617,1.20524287038477,0.4834839546011765,1.164186575339806,0.6670989242079541,0.8625332221041321,0.4318720787512798,0.8908092231527976,0.7476728967524107,0.8574070822964555,0.9318124401666608,1.22933921452635,0.7509921475672018,1.174453348753846,1.4086603083562181,1.2564621719585458,0.7681795897969134,0.8545724301224874,1.2493485193670868,1.2779195869105602,763.956043956044,0.0,713.5897435897436,753.0769230769231,695.054945054945,-0.46154799999999996,0.066833,0.878418,16.852722,27.409972999999997,-15.305023,35.0,65.0,-30.0
842.7168576104747,54.16253623390439,,,,,,,38.15260543888383,38.28816962269715,0.06427133353838724,0.04527333836309578,838.4615384615386,57.02307692307691,0.06800917431192659,69.23076923076917,17.02127659574468,63.12056737588654,10.846153846153848,125.0,,,0.026729433435749995,0.008048032561668465,0.001161445860672334,3.3212382319448053,0.7437463199023511,0.22393645621345207,-4.822327619699978,2021-10-14 16:22:13,2021-10-14 16:22:13.788,1.328260988571617,1.20524287038477,0.4834839546011765,1.164186575339806,0.6670989242079541,0.8625332221041321,0.4318720787512798,0.8908092231527976,0.7476728967524107,0.8574070822964555,0.9318124401666608,1.22933921452635,0.7509921475672018,1.174453348753846,1.4086603083562181,1.2564621719585458,0.7681795897969134,0.8545724301224874,1.2493485193670868,1.2779195869105602,810.2930402930403,916.2637362637364,1153.9926739926739,732.5274725274727,702.3076923076924,-0.8415530000000001,0.073181,0.55481,30.340881,6.22818,-19.447174,40.0,62.0,-22.0
842.7714129841788,54.04491412202142,,,,,,,38.06942983212417,38.2051299737553,0.06412760718906349,0.04517171470888375,838.4615384615386,57.02307692307691,0.06800917431192659,69.23076923076917,17.02127659574468,62.411347517730505,10.846153846153848,125.0,,,0.02775813143539104,0.00851955517324399,0.001289254277154559,3.258166755298044,0.7388978389212171,0.22678330927037696,-4.7653911492170336,2021-10-14 16:22:14,2021-10-14 16:22:14.781,1.328260988571617,1.20524287038477,0.4834839546011765,1.164186575339806,0.6670989242079541,0.8625332221041321,0.4318720787512798,0.8908092231527976,0.7476728967524107,0.8574070822964555,0.9318124401666608,1.22933921452635,0.7509921475672018,1.174453348753846,1.4086603083562181,1.2564621719585458,0.7681795897969134,0.8545724301224874,1.2493485193670868,1.2779195869105602,784.9084249084249,1032.710622710623,1017.8021978021981,736.5567765567764,735.3479853479854,-0.8792110000000001,0.20153800000000002,0.4360350000000001,49.444122,4.157104,-38.09433,44.0,68.0,-24.0
842.6623022367703,54.14731461380014,,,,,,,37.76288525733408,37.89446771445691,0.06425743084753052,0.0448137826470888,838.4615384615386,57.02307692307691,0.06800917431192659,69.23076923076917,16.312056737588655,62.411347517730505,10.846153846153848,125.0,,,0.02892979548026795,0.00904515924980104,0.0014016491228278814,3.1983732603607056,0.7346950384127561,0.2297089734704381,-4.705525553899483,2021-10-14 16:22:15,2021-10-14 16:22:15.781,1.328260988571617,1.20524287038477,0.4834839546011765,1.164186575339806,0.6670989242079541,0.8625332221041321,0.4318720787512798,0.8908092231527976,0.7476728967524107,0.8574070822964555,0.9318124401666608,1.22933921452635,0.7509921475672018,1.174453348753846,1.4086603083562181,1.2564621719585458,0.7681795897969134,0.8545724301224874,1.2493485193670868,1.2779195869105602,783.6996336996338,941.6483516483516,941.6483516483516,823.992673992674,974.2857142857144,-0.8918459999999999,0.061278999999999986,0.403198,10.609589,-9.114227,-4.8599239999999995,47.0,66.0,-19.0
842.062193126023,54.404896909040424,,,,,,,37.74609304487228,37.87837603972322,0.06460911955573119,0.04482577813492121,838.4615384615386,57.02307692307691,0.06800917431192659,69.23076923076917,16.312056737588655,62.411347517730505,10.846153846153848,125.0,,,0.03029168426148188,0.009739115933352107,0.001523005323975215,3.110311497345096,0.7289749731290059,0.2343736226263014,-4.6316049320435235,2021-10-14 16:22:16,2021-10-14 16:22:16.793,1.332501243992939,1.20524287038477,0.4834839546011765,1.64032202557369,0.6711099418806031,0.8625332221041321,0.4318720787512798,0.5600174104961303,0.8984067196951708,0.8574070822964555,0.9318124401666608,0.8161573929828296,1.320018916267232,1.174453348753846,1.4086603083562181,1.070440882931033,1.170997507217026,0.8545724301224874,1.2493485193670868,1.081270912553787,870.3296703296703,796.9963369963368,848.974358974359,752.6739926739926,1118.534798534798,-0.8842770000000001,0.204285,0.427124,-19.335022,-8.037567,23.215485,46.0,42.0,4.0
842.062193126023,54.404896909040424,,,,,,,37.92482665423819,38.059045067012406,0.06460911955573118,0.04503803515206906,838.4615384615386,57.02307692307691,0.06800917431192659,69.23076923076917,16.312056737588655,62.411347517730505,10.846153846153848,125.0,,,0.031920199218274325,0.01052949118238882,0.0016295214386027198,3.0315044350540608,0.7241553985736139,0.2388765756698291,-4.553575274764534,2021-10-14 16:22:17,2021-10-14 16:22:17.781,1.278842625636048,1.20524287038477,0.4834839546011765,1.368102017435526,0.6238625970047761,0.8625332221041321,0.4318720787512798,0.6294067086064734,0.9785735399204047,0.8574070822964555,0.9318124401666608,0.7175133015588822,1.172594956200627,1.174453348753846,1.4086603083562181,1.146904354658413,0.9970160039899424,0.8545724301224874,1.2493485193670868,1.111758645778147,848.1684981684982,782.0879120879123,766.7765567765567,784.1025641025641,805.4578754578755,-0.900818,0.182251,0.401611,3.887939,-1.75705,-1.0243229999999999,45.0,24.0,21.0
841.2242686890575,54.109259385361604,,,,,,,37.834495829294866,37.966181128947056,0.06432203800977368,0.04497551632486208,838.4615384615386,57.02307692307691,0.06800917431192659,69.23076923076917,16.19718309859155,61.97183098591549,10.142857142857142,125.0,,,0.033154273749676416,0.011245266787212268,0.0016959909416762622,2.9482869883868235,0.7192513609501089,0.2439556813102691,-4.487807968888994,2021-10-14 16:22:18,2021-10-14 16:22:18.781,0.9201662894982644,1.20524287038477,0.4834839546011765,1.090126878979945,0.7808667578344843,0.8625332221041321,0.4318720787512798,0.7269909297750041,1.147535936312791,0.8574070822964555,0.9318124401666608,0.8519522535850258,1.011617336286899,1.174453348753846,1.4086603083562181,1.101328941212268,0.6643014286512504,0.8545724301224874,1.2493485193670868,0.9532419202974344,750.2564102564102,851.3919413919414,807.8754578754579,762.7472527472528,723.2600732600732,-0.911438,0.192078,0.36645500000000003,4.9272160000000005,-5.099182,-0.36636399999999997,35.0,13.0,22.0
841.3326110509207,54.19657742049304,,,,,,,38.49425776857136,38.63145383768838,0.0644175403504154,0.045753911429259365,838.4615384615386,57.02307692307691,0.06800917431192659,69.23076923076917,16.901408450704224,62.67605633802818,10.142857142857142,125.0,,,0.035148902874987606,0.012264254503780032,0.001776991809417145,2.865963264555067,0.7145516623769498,0.24932338499038015,-4.401066385525857,2021-10-14 16:22:19,2021-10-14 16:22:19.790,1.1473074943465411,1.20524287038477,0.4834839546011765,1.3081134386818039,0.9378327020136444,0.8625332221041321,0.4318720787512798,0.8609426530477747,1.3735073020234472,0.8574070822964555,0.9318124401666608,1.214125964246133,0.91721623361809,1.174453348753846,1.4086603083562181,1.010564224140654,0.8733385200977072,0.8545724301224874,1.2493485193670868,0.8355722955620741,760.7326007326008,928.7545787545787,825.6043956043958,754.2857142857142,657.1794871794872,-0.925171,0.19165,0.375366,-2.83371,-0.44113199999999997,0.785065,27.0,9.0,18.0
840.5891980360067,53.972429508645426,,,,,,,38.51095726215691,38.64919828855759,0.06420785519817437,0.04581424238157685,838.4615384615386,57.02307692307691,0.06800917431192659,69.23076923076917,16.312056737588655,62.411347517730505,10.071428571428571,125.0,,,0.03745187027330274,0.013519516533740592,0.0018314363754007774,2.770207808824693,0.7092778002399452,0.2560377593263908,-4.303620968345413,2021-10-14 16:22:20,2021-10-14 16:22:20.781,0.9920815081039616,1.20524287038477,0.4834839546011765,1.387995798434604,0.9355775315315926,0.8625332221041321,0.4318720787512798,0.9189877218551716,1.4229315799317102,0.8574070822964555,0.9318124401666608,1.2429517082835908,1.1409025468088048,1.174453348753846,1.4086603083562181,1.069035811976376,1.066196107684793,0.8545724301224874,1.2493485193670868,1.018297015051451,835.2747252747251,651.5384615384615,795.3846153846154,796.1904761904763,790.5494505494507,-0.950684,0.041625999999999996,0.302917,41.414032,-8.022614,-13.959198,21.0,12.0,9.0
840.3709765411893,53.98064858146294,,,,,,,38.42305767305285,38.56098299053368,0.06423430852364423,0.045721542920479016,838.4615384615386,57.02307692307691,0.06800917431192659,69.23076923076917,16.312056737588655,62.411347517730505,10.071428571428571,125.0,,,0.03941107607034258,0.014571347789201447,0.001848516368663835,2.704696685611292,0.7059002751744926,0.2609905498571464,-4.228698158646878,2021-10-14 16:22:21,2021-10-14 16:22:21.781,1.166219630849868,1.20524287038477,0.4834839546011765,1.128244077358218,0.9043574466468012,0.8625332221041321,0.4318720787512798,0.7348428106734067,1.3536670100268158,0.8574070822964555,0.9318124401666608,1.0881617227512599,1.2873608328964659,1.174453348753846,1.4086603083562181,1.2164177623265249,1.2315010477116202,0.8545724301224874,1.2493485193670868,1.099080443992386,820.7692307692308,873.956043956044,790.1465201465203,835.6776556776558,1027.875457875458,-0.9143680000000001,-0.077026,0.41345200000000004,20.553741,-13.712463,-7.9403690000000005,20.0,14.000000000000002,5.999999999999997
840.4800872885978,53.94531991018412,,,,,,,38.42305767305285,38.560667574235346,0.0641839357363154,0.04571560737031408,838.4615384615386,57.02307692307691,0.06800917431192659,69.23076923076917,16.312056737588655,62.411347517730505,10.846153846153848,125.0,,,0.04338530653281608,0.016432262446025137,0.001899752249384481,2.6402515585010464,0.7029680755647301,0.2662504159125758,-4.108508654281248,2021-10-14 16:22:22,2021-10-14 16:22:22.780,0.9463027023827916,1.20524287038477,0.4834839546011765,1.4383983427917622,0.5109162409380755,0.8625332221041321,0.4318720787512798,0.6229190578565247,1.089629542064183,0.8574070822964555,0.9318124401666608,1.093955688046042,1.203743236516748,1.174453348753846,1.4086603083562181,1.228318651851368,1.231216910328411,0.8545724301224874,1.2493485193670868,1.169496042164144,773.6263736263736,844.1391941391942,796.5934065934067,764.3589743589743,562.4908424908425,-0.745422,-0.070496,0.6598510000000001,20.389252,-17.054596,-14.265747,24.0,17.0,7.0
839.815817984832,54.27929055357495,,,,,,,38.76043163423925,38.897228315200636,0.0646323746125907,0.046153490806170185,838.4615384615386,57.02307692307691,0.06800917431192659,76.9230769230769,16.19718309859155,62.67605633802818,10.923076923076923,125.0,,,0.045091944777545995,0.01730966475835516,0.0018493845878515731,2.605015487418997,0.7018092932647109,0.26940695617900184,-4.05649027691656,2021-10-14 16:22:23,2021-10-14 16:22:23.780,0.5152672201204388,1.20524287038477,0.4834839546011765,1.4362044138170618,0.4483333024051583,0.8625332221041321,0.4318720787512798,0.8939341190655065,0.9724625016830384,0.8574070822964555,0.9318124401666608,1.05275740983475,1.1784097694843192,1.174453348753846,1.4086603083562181,1.009825954324193,0.9552242923334066,0.8545724301224874,1.2493485193670868,0.9932440652824448,764.3589743589743,974.6886446886447,949.7069597069597,770.4029304029305,638.2417582417582,-0.37799099999999997,0.079834,0.9485469999999999,7.992706,-23.985595999999997,2.512207,25.0,19.0,6.0
840.465872156013,53.792971768739854,,,,,,,38.94944217444735,39.08365999279804,0.06400375500167177,0.046342681439916066,838.4615384615386,57.02307692307691,0.06800917431192659,75.0,16.19718309859155,63.38028169014085,10.923076923076923,125.0,,,0.04684340586034822,0.018108063296775046,0.001787011178386153,2.5868810536293405,0.7018950030755244,0.2713286728397428,-4.011397953900119,2021-10-14 16:22:24,2021-10-14 16:22:24.789,0.5152672201204388,1.20524287038477,0.4834839546011765,1.2191432456444131,0.4483333024051583,0.8625332221041321,0.4318720787512798,0.8617541474941105,0.9724625016830384,0.8574070822964555,0.9318124401666608,0.865198441003967,1.1784097694843192,1.174453348753846,1.4086603083562181,0.8728934051991368,0.9552242923334066,0.8545724301224874,1.2493485193670868,0.8411498780375349,833.2600732600732,323.956043956044,420.65934065934067,811.9047619047618,723.6630036630037,-0.112122,0.143921,1.0006709999999999,6.452483999999999,-11.095581,2.4972529999999997,26.0,20.0,6.0
841.189307146754,53.382103622174064,,,,,,,39.32546210242028,39.46570402414939,0.0634602736490337,0.04674983593860585,838.4615384615386,57.02307692307691,0.06800917431192659,69.23076923076917,17.02127659574468,64.53900709219859,10.846153846153848,125.0,,,0.046828221903979735,0.018102566388099317,0.0016561623503213545,2.5868277955751484,0.7032642500099868,0.27186357407050554,-4.011701561363772,2021-10-14 16:22:25,2021-10-14 16:22:25.785,0.5152672201204388,1.20524287038477,0.4834839546011765,1.2786006274756079,0.4483333024051583,0.8625332221041321,0.4318720787512798,0.8042123245780187,0.9724625016830384,0.8574070822964555,0.9318124401666608,0.8374123879607377,1.1784097694843192,1.174453348753846,1.4086603083562181,0.8341797911793118,0.9552242923334066,0.8545724301224874,1.2493485193670868,0.7442861234064638,760.3296703296703,851.3919413919414,794.981684981685,760.3296703296703,585.8608058608057,-0.138062,0.137695,0.991394,3.289795,-1.7271419999999995,-0.007476999999999998,26.0,28.000000000000004,-2.000000000000004
841.6803055100928,52.88910892692708,,,,,,,39.363060722593076,39.49885843978048,0.06283752700483364,0.04676723509496571,838.4615384615386,57.02307692307691,0.06800917431192659,69.23076923076917,17.02127659574468,64.53900709219859,10.846153846153848,125.0,,,0.04707556490847668,0.01807151946087161,0.0015446730339493244,2.6049588696957406,0.7058678124764636,0.270970809055004,-4.0134180904271775,2021-10-14 16:22:26,2021-10-14 16:22:26.781,0.5152672201204388,1.20524287038477,0.4834839546011765,0.9544847568118556,0.4483333024051583,0.8625332221041321,0.4318720787512798,0.6915136371329509,0.9724625016830384,0.8574070822964555,0.9318124401666608,0.9132210127456072,1.1784097694843192,1.174453348753846,1.4086603083562181,1.128133402491205,0.9552242923334066,0.8545724301224874,1.2493485193670868,1.073046204442756,822.3809523809523,780.8791208791209,868.3150183150183,797.3992673992674,690.2197802197803,-0.168518,0.162109,0.990662,8.598328,-6.056213,-25.024872,28.000000000000004,28.000000000000004,0.0
842.3895253682488,52.05511921428107,,,,,,,39.10451565417682,39.24353263704224,0.06179459459865114,0.04642094242219165,838.4615384615386,57.02307692307691,0.06800917431192659,69.23076923076917,16.312056737588655,63.829787234042556,10.846153846153848,125.0,,,0.04776787610984407,0.018014988415061054,0.00143848219261649,2.651562965752936,0.7106057590689879,0.2679950535767137,-4.016551177854113,2021-10-14 16:22:27,2021-10-14 16:22:27.781,0.5152672201204388,1.20524287038477,0.4834839546011765,0.8012517219460017,0.4483333024051583,0.8625332221041321,0.4318720787512798,0.5414184785301865,0.9724625016830384,0.8574070822964555,0.9318124401666608,0.9404125387725054,1.1784097694843192,1.174453348753846,1.4086603083562181,1.047301220795125,0.9552242923334066,0.8545724301224874,1.2493485193670868,0.9730294201609032,848.1684981684982,0.0,784.9084249084249,857.4358974358977,893.6996336996338,-0.14978,0.12402300000000001,0.983276,-3.005676,2.272949,39.17099,30.0,29.0,1.0000000000000036
842.3349699945444,52.07141296896272,,,,,,,39.158519982704156,39.29897078813619,0.061817940396443435,0.04648806161159115,838.4615384615386,57.02307692307691,0.06800917431192659,69.23076923076917,16.312056737588655,63.829787234042556,11.75,125.0,,,0.04860209824677186,0.017961945125562543,0.001382386198303557,2.705837141079102,0.7153002527711116,0.2643545104439827,-4.019499918767411,2021-10-14 16:22:28,2021-10-14 16:22:28.794,0.5152672201204388,1.20524287038477,0.4834839546011765,1.025355247732538,0.4483333024051583,0.8625332221041321,0.4318720787512798,0.3741407244113323,0.9724625016830384,0.8574070822964555,0.9318124401666608,0.7877708707856864,1.1784097694843192,1.174453348753846,1.4086603083562181,1.140126290444208,0.9552242923334066,0.8545724301224874,1.2493485193670868,0.9859934626211802,831.2454212454213,1053.663003663004,940.8424908424907,786.1172161172162,796.1904761904763,-0.167053,0.159363,0.9857790000000001,3.282318,-1.435547,9.06189,35.0,50.0,-15.0
842.4440807419531,52.03064020947794,,,,,,,39.10991944272665,39.24845245312347,0.06176153574923784,0.04642435069195567,838.4615384615386,57.02307692307691,0.06800917431192659,69.23076923076917,16.312056737588655,63.829787234042556,12.818181818181818,125.0,,,0.04966579699565458,0.017784003673691567,0.0013446552793290815,2.7927230508351024,0.721944760093869,0.2585092567191678,-4.029455895747413,2021-10-14 16:22:29,2021-10-14 16:22:29.781,0.6414035781138555,1.20524287038477,0.4834839546011765,1.047964047076543,0.2657575785186597,0.8625332221041321,0.4318720787512798,0.3387947198913722,1.253583801906432,0.8574070822964555,0.9318124401666608,0.8700764310035657,1.2940921710223139,1.174453348753846,1.4086603083562181,0.7904119931490065,1.249666662807972,0.8545724301224874,1.2493485193670868,0.4386793176449503,836.8864468864467,1297.838827838828,888.0586080586081,813.5164835164835,855.8241758241759,-0.224854,0.153015,0.972656,6.160889,-2.871094,4.4487,44.0,53.0,-9.0
842.6077468630659,51.85907924525911,,,,,,,39.19088685968576,39.33145401188197,0.0615459321829459,0.04651142480660666,838.4615384615386,57.02307692307691,0.06800917431192659,69.23076923076917,16.312056737588655,64.53900709219859,12.818181818181818,109.375,,,0.050703031246762606,0.017638429036330748,0.0013466182689102154,2.8745775002029412,0.7275710896366057,0.2531054005624271,-4.037675289266643,2021-10-14 16:22:30,2021-10-14 16:22:30.788,0.5640491510591602,1.20524287038477,0.4834839546011765,0.5632984453253481,0.4447469634005636,0.8625332221041321,0.4318720787512798,0.2254276035269227,1.351400047991111,0.8574070822964555,0.9318124401666608,0.7576516285681554,1.090104799733262,1.174453348753846,1.4086603083562181,0.6470705512169952,1.016358718463787,0.8545724301224874,1.2493485193670868,0.3695710164877976,824.3956043956044,1567.399267399268,981.1355311355313,800.2197802197803,734.945054945055,-0.278503,0.0979,0.955383,-22.213593,5.054321,54.722747999999996,49.0,53.0,-4.0
843.1868131868132,51.70940860607264,,,,,,,39.22322702763682,39.36257596672046,0.061326159040174764,0.046517837345431384,838.4615384615386,57.02307692307691,0.06800917431192659,69.23076923076917,16.428571428571427,65.0,12.727272727272727,257.8125,,,0.05232698119400218,0.017507952328026773,0.0013917096359569144,2.98875506476203,0.7346546021821796,0.2458062257573035,-4.045100082525211,2021-10-14 16:22:31,2021-10-14 16:22:31.781,1.00003353342137,1.20524287038477,0.4834839546011765,0.9237439312327668,0.7825208574184397,0.8625332221041321,0.4318720787512798,0.6788869854955916,1.2329415445425271,0.8574070822964555,0.9318124401666608,1.1532903200422429,0.9326566756810704,1.174453348753846,1.4086603083562181,0.8704613801152159,0.8935661938356774,0.8545724301224874,1.2493485193670868,0.4046824155313266,761.1355311355313,344.1025641025641,827.2161172161173,819.5604395604396,691.8315018315019,-0.301514,0.020752,0.96167,-2.265472,-7.446899,23.940735,55.00000000000001,54.0,1.000000000000007
843.6988543371523,51.09386013484824,,,,,,,39.255540552568974,39.3940245895393,0.0605593570172498,0.04652790548519815,838.4615384615386,45.61846153846162,0.05440733944954139,61.53846153846154,16.312056737588655,65.95744680851064,12.818181818181818,257.8125,,,0.053799682771340895,0.017433375149257125,0.0014611002766796695,3.0860164661593616,0.7400826160657794,0.2398181034292517,-4.04936879796329,2021-10-14 16:22:32,2021-10-14 16:22:32.783,1.287182798113701,1.20524287038477,0.4834839546011765,1.190624039915911,0.916003526050588,0.8625332221041321,0.4318720787512798,0.9981152037780122,1.1512117709948058,0.8574070822964555,0.9318124401666608,1.150553228136919,0.8040578976940795,1.174453348753846,1.4086603083562181,1.1131843587573909,0.7007927603393251,0.8545724301224874,1.2493485193670868,0.6249991013714006,841.7216117216118,920.2930402930403,810.6959706959708,815.934065934066,753.8827838827838,-0.34314,0.011658,0.9577030000000001,-5.069275,2.377625,28.531494,60.0,56.99999999999999,3.0000000000000067
844.2444080741952,50.61879166502342,,,,,,,39.14232650762365,39.28190634279004,0.05995750896412791,0.04636373795701077,838.4615384615386,45.61846153846162,0.05440733944954139,61.53846153846154,16.312056737588655,65.24822695035462,12.818181818181818,257.8125,,,0.05544179402819464,0.017401798332749636,0.0015592760948835865,3.1859807226851338,0.7451566744514668,0.2338861215153403,-4.051181725645275,2021-10-14 16:22:33,2021-10-14 16:22:33.780,0.7893934773402277,1.20524287038477,0.4834839546011765,0.9381562594241382,0.8017174375212388,0.8625332221041321,0.4318720787512798,0.3367831818816237,1.4533628678187558,0.8574070822964555,0.9318124401666608,1.478361429406225,0.9433657072365532,1.174453348753846,1.4086603083562181,1.1253852620850309,0.6562126538320738,0.8545724301224874,1.2493485193670868,1.240280394701929,788.1318681318681,47.54578754578755,799.4139194139194,799.0109890109891,774.8351648351648,-0.406921,-0.008606,0.924744,-12.725525,-3.147736,37.847595,57.99999999999999,53.0,4.999999999999994
844.571740316421,50.47967486408915,,,,,,,39.14772507692145,39.28689875022725,0.05976955237121336,0.04635216075576321,838.4615384615386,45.61846153846162,0.05440733944954139,61.53846153846154,16.312056737588655,65.24822695035462,12.818181818181818,257.8125,,,0.05754625130178104,0.017382473037856148,0.0017178246296112908,3.310590568813473,0.7508002914112845,0.2267874192852467,-4.0522928771008235,2021-10-14 16:22:34,2021-10-14 16:22:34.793,1.00400216199174,1.20524287038477,0.4834839546011765,0.9731502394053552,0.8750525495591264,0.8625332221041321,0.4318720787512798,0.3263521324645192,1.196042128424583,0.8574070822964555,0.9318124401666608,1.450479672662375,0.9130860034691012,1.174453348753846,1.4086603083562181,1.130197997882187,0.8624355904859291,0.8545724301224874,1.2493485193670868,1.25768745096141,785.7142857142858,6.043956043956044,621.3186813186812,784.9084249084249,759.9267399267401,-0.35430900000000004,-0.130493,0.9328,0.47103900000000004,-8.19458,-0.755157,69.0,61.0,8.0
844.7802197802197,50.58314622816922,,,,,,,39.23950335188432,39.37949970485547,0.059877285291231215,0.04644936331735251,838.4615384615386,45.61846153846162,0.05440733944954139,61.53846153846154,16.428571428571427,65.0,12.727272727272727,257.8125,,,0.059124311554498786,0.017362433457570436,0.0018680220790555089,3.4053009734484636,0.7545719775510099,0.22158745539219507,-4.053446403446359,2021-10-14 16:22:35,2021-10-14 16:22:35.781,1.178484013339937,1.20524287038477,0.4834839546011765,1.0129530616144091,1.020821644648109,0.8625332221041321,0.4318720787512798,0.3479198184576336,0.9914763186625812,0.8574070822964555,0.9318124401666608,1.405038375209172,0.9166452923921888,1.174453348753846,1.4086603083562181,1.164931451817573,1.024882374421522,0.8545724301224874,1.2493485193670868,1.2653960626567649,800.2197802197803,1099.1941391941389,815.1282051282053,791.7582417582418,686.5934065934066,-0.270142,-0.076599,0.9705809999999999,-1.80191,-17.757416,17.174225,82.0,81.0,1.0
844.189852700491,50.55402486139474,,,,,,,39.13152713467493,39.27168734445736,0.05988466302891079,0.04635394160388985,838.4615384615386,45.61846153846162,0.05440733944954139,61.53846153846154,16.312056737588655,65.24822695035462,12.818181818181818,257.8125,,,0.060468377875754625,0.01732009358482932,0.002032593816579332,3.491226971701753,0.7575491214730075,0.21698650005094053,-4.055887972581306,2021-10-14 16:22:36,2021-10-14 16:22:36.781,0.6833984824322376,1.20524287038477,0.4834839546011765,1.0129530616144091,0.8036927766776479,0.8625332221041321,0.4318720787512798,0.3479198184576336,0.9708951490921239,0.8574070822964555,0.9318124401666608,1.405038375209172,1.066550847962956,1.174453348753846,1.4086603083562181,1.164931451817573,1.181181808154951,0.8545724301224874,1.2493485193670868,1.2653960626567649,786.1172161172162,445.64102564102564,689.4139194139194,798.2051282051282,713.5897435897436,-0.24102800000000002,-0.08862300000000001,0.975403,7.932892,2.272949,0.149536,80.0,81.0,-1.0
843.8079650845607,50.742111158395296,,,,,,,39.13152713467493,39.27168734445736,0.06013466719683106,0.04637492030636786,838.4615384615386,45.61846153846162,0.05440733944954139,61.53846153846154,16.312056737588655,65.24822695035462,12.818181818181818,257.8125,,,0.061865250163637225,0.017295305478513073,0.0022572339449443376,3.5769966734901497,0.7598492967861579,0.21242661543902336,-4.05732017392661,2021-10-14 16:22:37,2021-10-14 16:22:37.783,0.7987410406526986,1.20524287038477,0.4834839546011765,1.0129530616144091,0.8664361488598356,0.8625332221041321,0.4318720787512798,0.3479198184576336,0.6723618687641008,0.8574070822964555,0.9318124401666608,1.405038375209172,1.194955101536443,1.174453348753846,1.4086603083562181,1.164931451817573,1.356792538255602,0.8545724301224874,1.2493485193670868,1.2653960626567649,744.2124542124542,781.2820512820513,952.1245421245419,761.9413919413921,1093.150183150183,-0.704346,0.011902,0.730408,7.230072,14.549866,1.315918,78.0,75.0,3.0
843.6442989634479,50.87149585341561,,,,,,,39.10991944272665,39.249382112865455,0.060299697296502086,0.04635830466795005,838.4615384615386,45.61846153846162,0.05440733944954139,69.23076923076917,16.312056737588655,65.24822695035462,12.818181818181818,164.0625,,,0.06269784134915474,0.017312721157796897,0.0024465155219976034,3.6214896998394934,0.7603694291367277,0.20996040087327256,-4.05631372065859,2021-10-14 16:22:38,2021-10-14 16:22:38.790,0.7987410406526986,1.20524287038477,0.4834839546011765,1.0129530616144091,0.8664361488598356,0.8625332221041321,0.4318720787512798,0.3479198184576336,0.6723618687641008,0.8574070822964555,0.9318124401666608,1.405038375209172,1.194955101536443,1.174453348753846,1.4086603083562181,1.164931451817573,1.356792538255602,0.8545724301224874,1.2493485193670868,1.2653960626567649,827.6190476190477,870.3296703296703,564.5054945054945,840.1098901098901,643.8827838827839,-0.8482059999999999,0.051879999999999996,0.552002,2.198181,-2.093506,4.755249,69.0,68.0,1.0
843.5897435897435,50.88952337901772,,,,,,,39.17470676396016,39.31533176614898,0.06032496692345565,0.04643810224299229,838.4615384615386,45.61846153846162,0.05440733944954139,69.23076923076917,16.312056737588655,65.95744680851064,12.818181818181818,164.0625,,,0.0632749563353643,0.01738789492560531,0.002641615853834653,3.639023389897876,0.7595625844189516,0.20872704103181589,-4.051981008799701,2021-10-14 16:22:39,2021-10-14 16:22:39.781,0.9028527415011476,1.20524287038477,0.4834839546011765,1.0129530616144091,0.3071535777939204,0.8625332221041321,0.4318720787512798,0.3479198184576336,0.8139500943695739,0.8574070822964555,0.9318124401666608,1.405038375209172,1.499179742308089,1.174453348753846,1.4086603083562181,1.164931451817573,1.3949150649200401,0.8545724301224874,1.2493485193670868,1.2653960626567649,832.0512820512822,811.5018315018315,851.7948717948718,874.3589743589743,727.6923076923077,-0.842224,0.09350599999999999,0.544006,45.967407,-1.5551760000000001,-32.262421,62.0,62.0,0.0
843.5897435897435,50.88952337901772,,,,,,,39.18010087162964,39.3207839126785,0.06032496692345565,0.04644449647396827,838.4615384615386,45.61846153846162,0.05440733944954139,69.23076923076917,16.312056737588655,65.95744680851064,12.818181818181818,164.0625,,,0.06359152014617651,0.017541171758557475,0.0028392633091769864,3.6252720754047316,0.7572947418478331,0.2088932157632024,-4.043204489334588,2021-10-14 16:22:40,2021-10-14 16:22:40.793,0.9904558802658966,1.20524287038477,0.4834839546011765,1.0129530616144091,0.3075952908582565,0.8625332221041321,0.4318720787512798,0.3479198184576336,0.8488168648601752,0.8574070822964555,0.9318124401666608,1.405038375209172,1.4800900293843218,1.174453348753846,1.4086603083562181,1.164931451817573,1.391420860274122,0.8545724301224874,1.2493485193670868,1.2653960626567649,731.7216117216118,858.6446886446887,838.4981684981685,773.2234432234433,1062.930402930403,-0.872864,0.050963999999999995,0.48132299999999995,48.307648,-8.17215,-23.230438,53.0,48.0,5.0
843.6988543371523,50.81182985487221,,,,,,,39.00711944900846,39.147181369844816,0.06022507864466909,0.046233462625303916,838.4615384615386,45.61846153846162,0.05440733944954139,69.23076923076917,15.602836879432626,66.66666666666666,11.75,164.0625,,,0.06356254223576664,0.01784739848997513,0.003079585614902546,3.56144579118742,0.7523126828702483,0.2112379991103052,-4.025897524236547,2021-10-14 16:22:41,2021-10-14 16:22:41.781,1.017795404701117,1.20524287038477,0.4834839546011765,1.0129530616144091,0.2548889807161688,0.8625332221041321,0.4318720787512798,0.3479198184576336,0.7431330153614749,0.8574070822964555,0.9318124401666608,1.405038375209172,1.467793055492296,1.174453348753846,1.4086603083562181,1.164931451817573,1.366777097976107,0.8545724301224874,1.2493485193670868,1.2653960626567649,716.8131868131868,868.7179487179487,749.4505494505495,772.4175824175826,691.8315018315019,-0.914185,0.095703,0.452759,34.326019,-7.701111,-15.574188000000001,44.0,39.0,5.0
843.1533006001091,51.03139975861173,,,,,,,39.41134909984461,39.544212947474435,0.060524461829527865,0.04674280355872868,838.4615384615386,57.02307692307691,0.06800917431192659,69.23076923076917,16.312056737588655,66.66666666666666,11.75,164.0625,,,0.06316944463060663,0.018182722067987885,0.0032592231627856173,3.474146741857833,0.7465832287366735,0.21489686078643616,-4.007283472728824,2021-10-14 16:22:42,2021-10-14 16:22:42.781,1.62996454028243,1.20524287038477,0.4834839546011765,1.4055558324807542,1.254792387033306,0.8625332221041321,0.4318720787512798,0.9913913515538944,0.9565889537554976,0.8574070822964555,0.9318124401666608,1.215065914427592,1.279746477207904,1.174453348753846,1.4086603083562181,1.137148919130965,0.7832854849431101,0.8545724301224874,1.2493485193670868,0.6978590090273556,774.0293040293042,836.4835164835165,868.3150183150183,820.7692307692308,637.032967032967,-0.812317,-0.059265,0.552002,28.59130900000001,-28.89785800000001,-29.353943,35.0,30.0,5.0
842.4986361156574,50.888816537540464,,,,,,,39.43815042840959,39.57223056687357,0.0604022539100639,0.046810936822686514,838.4615384615386,45.61846153846162,0.05440733944954139,69.23076923076917,16.312056737588655,67.37588652482269,11.75,164.0625,,,0.059412975507288475,0.017871475944699875,0.003302150568096697,3.3244582423483893,0.7372562438168152,0.22176733472700175,-4.024549359785532,2021-10-14 16:22:43,2021-10-14 16:22:43.781,1.4538755264351952,1.20524287038477,0.4834839546011765,1.723897987713905,1.078505766910453,0.8625332221041321,0.4318720787512798,0.976317892488402,1.2237312877358402,0.8574070822964555,0.9318124401666608,1.265679201590498,1.368714466402741,1.174453348753846,1.4086603083562181,1.079896609448426,0.8647198932773412,0.8545724301224874,1.2493485193670868,0.6912434320170668,751.8681318681319,909.4139194139194,795.7875457875458,718.4249084249085,646.7032967032967,-0.384338,0.000793,0.9336549999999999,12.089996000000001,-13.106842,-2.265472,27.0,23.0,4.0
841.6803055100928,50.635488411807366,,,,,,,39.00711944900846,39.145783231257255,0.060160001464119074,0.04634434142470346,838.4615384615386,45.61846153846162,0.05440733944954139,69.23076923076917,15.602836879432626,66.66666666666666,11.75,164.0625,,,0.055252389749601206,0.01737450232024657,0.0032448923965370763,3.180084743216812,0.7282336923824546,0.2289982032509645,-4.052751531380559,2021-10-14 16:22:44,2021-10-14 16:22:44.781,0.2101278863863206,1.20524287038477,0.4834839546011765,1.58747289276255,0.2861523776543687,0.8625332221041321,0.4318720787512798,0.8061347820308191,0.9832340125413044,0.8574070822964555,0.9318124401666608,1.233695400203766,1.5209480994348201,1.174453348753846,1.4086603083562181,1.05501871682232,1.5337546318229869,0.8545724301224874,1.2493485193670868,1.106528400247796,840.5128205128206,960.5860805860806,751.0622710622711,804.6520146520148,829.6336996336996,-0.276794,0.087891,0.9743040000000001,5.256195,-6.57959,-3.0430599999999997,22.0,25.0,-3.0
840.8450704225351,50.97713303352186,,,,,,,39.191116316542,39.33022582022139,0.06062607111189367,0.04660920030945532,838.4615384615386,51.32076923076927,0.06120825688073399,69.23076923076917,15.492957746478872,67.6056338028169,11.833333333333336,164.0625,,,0.051737413155245535,0.017110650802830567,0.0031941538165904822,3.023696395387061,0.7181540873307043,0.2375086627170364,-4.068054155399849,2021-10-14 16:22:45,2021-10-14 16:22:45.781,0.24336737969970398,1.20524287038477,0.1140766507950353,0.5767701710393808,0.320327523624082,0.8625332221041321,0.3994741359719179,0.5495320205602126,1.271607643743931,0.8574070822964555,0.6707604338997578,1.204120938660596,1.4119814666995618,1.174453348753846,1.2761218152966178,0.9599373517445822,1.4466058604144851,0.8545724301224874,1.096165199204661,1.0658378626857699,853.0036630036632,935.2014652014653,740.1831501831501,798.2051282051282,802.2344322344322,-0.313171,0.07757599999999999,0.969849,11.035767,-6.407623,-23.738861,20.0,24.0,-4.0
840.6825568797399,51.021550463550604,,,,,,,39.17505109089607,39.313759961763175,0.060690625784982535,0.046599100659703685,838.4615384615386,51.32076923076927,0.06120825688073399,69.23076923076917,15.492957746478872,67.6056338028169,12.909090909090908,164.0625,,,0.04852258870336747,0.016933767772768168,0.003128868301073931,2.865433691691371,0.7074787443066194,0.2469011048338089,-4.078445557522779,2021-10-14 16:22:46,2021-10-14 16:22:46.787,0.2214392585546861,1.20524287038477,0.7216481902190209,0.7708951560399991,0.3590155646150427,0.8625332221041321,0.5493908898068519,0.6855457746395213,1.262584997891259,0.8574070822964555,0.8384088213194671,1.1317865738572972,1.302910467505959,1.174453348753846,1.321283964216205,1.0157538706638,1.365645088952522,0.8545724301224874,0.9139791402833738,1.148806855563628,803.8461538461539,948.4981684981683,713.1868131868132,805.8608058608058,678.5347985347987,-0.230591,0.063904,0.9732059999999999,3.955231,-8.187103,-3.192596,19.0,22.0,-3.0
840.249187432286,51.170080921862905,,,,,,,39.08925837671366,39.22827060677409,0.060898697299825236,0.04652103085772253,838.4615384615386,57.02307692307691,0.06800917431192659,69.23076923076917,15.492957746478872,67.6056338028169,12.909090909090908,164.0625,,,0.04540953218448581,0.016734858829026762,0.003036101753324937,2.7134696891331154,0.6966736558271195,0.2567464300843873,-4.090261380026567,2021-10-14 16:22:47,2021-10-14 16:22:47.780,0.2214392585546861,1.20524287038477,0.967783084520898,1.1700408564572728,0.3590155646150427,0.8625332221041321,0.5364685155124901,0.6984223189216209,1.262584997891259,0.8574070822964555,0.7352867634372613,1.1829650347450058,1.302910467505959,1.174453348753846,1.4484938492492152,1.205354212548051,1.365645088952522,0.8545724301224874,0.8411683921374682,1.4409829888562018,824.7985347985347,763.5531135531136,792.9670329670329,772.0146520146519,765.1648351648352,-0.254333,0.080933,0.970398,3.9402769999999996,-4.538422,-1.016846,17.0,20.0,-3.0
840.3575297941493,51.018306663926325,,,,,,,38.87394823798303,39.012190967003775,0.06071023921975634,0.04625882063257699,838.4615384615386,57.02307692307691,0.06800917431192659,69.23076923076917,14.788732394366194,67.6056338028169,12.909090909090908,164.0625,,,0.042739950708264716,0.01678013365292191,0.002953613603124808,2.5470566321039074,0.6841271143046508,0.2685951720435644,-4.087559612961573,2021-10-14 16:22:48,2021-10-14 16:22:48.781,0.2214392585546861,1.20524287038477,0.3711823951549629,0.8392642929575221,0.3590155646150427,0.8625332221041321,0.1012768362153984,0.1326961753195875,1.262584997891259,0.8574070822964555,0.6173350277919211,0.8572478241523148,1.302910467505959,1.174453348753846,1.410234937196446,1.027055078735177,1.365645088952522,0.8545724301224874,1.351386703104367,1.2491630111319858,660.8058608058608,666.0439560439562,804.2490842490844,778.4615384615387,1062.527472527473,-0.19104000000000002,0.102478,0.998352,-7.6188660000000015,-1.2486270000000002,28.262328999999998,18.0,16.0,2.0
840.1950162513542,51.18425781525692,,,,,,,38.868550203070114,39.00650467474781,0.06091949705155659,0.04626134343963083,838.4615384615386,57.02307692307691,0.06800917431192659,69.23076923076917,14.788732394366194,67.6056338028169,12.909090909090908,164.0625,,,0.0413014300658972,0.016919286336258818,0.00289999268337643,2.44108582626126,0.6757354533976347,0.2768175727899677,-4.079301104401714,2021-10-14 16:22:49,2021-10-14 16:22:49.788,0.2214392585546861,1.20524287038477,1.3950703301095773,0.5495598183999467,0.3590155646150427,0.8625332221041321,0.7952675082637062,0.2854300007473278,1.262584997891259,0.8574070822964555,1.057557913607397,0.8123255448688952,1.302910467505959,1.174453348753846,1.3338691450422442,0.9468629823556312,1.365645088952522,0.8545724301224874,1.162090614439179,1.092485364047012,873.956043956044,207.10622710622712,798.6080586080586,799.0109890109891,1207.179487179487,-0.346558,0.051208000000000004,0.928284,-14.744263,-1.039276,41.242065000000004,21.0,13.0,8.0
840.0866738894908,51.2697556392966,,,,,,,38.803715211806114,38.94066774922216,0.06102912619947221,0.04619013301585897,838.4615384615386,57.02307692307691,0.06800917431192659,75.0,14.788732394366194,66.90140845070422,12.909090909090908,164.0625,,,0.040589817555671336,0.01726424972224875,0.002870545599096141,2.3510907342450285,0.6684244762148868,0.28430398983709493,-4.059117405658512,2021-10-14 16:22:50,2021-10-14 16:22:50.783,0.2214392585546861,1.20524287038477,1.3785743549422955,0.7518101522088185,0.3590155646150427,0.8625332221041321,1.0517429938484641,0.4595022669061142,1.262584997891259,0.8574070822964555,1.2310326221373191,0.7834252290027932,1.302910467505959,1.174453348753846,1.2145295416884427,0.97554776181348,1.365645088952522,0.8545724301224874,1.230566920290706,0.967195967707308,815.5311355311355,859.8534798534797,748.6446886446887,777.6556776556778,758.7179487179487,-0.367004,0.042480000000000004,0.9472659999999999,-18.228455,-0.231781,68.128662,26.0,4.0,22.0
839.1707583196946,51.821436613264616,,,,,,,38.795255524686226,38.91733247779752,0.0617531486881511,0.04623046637417101,830.7692307692308,45.61846153846162,0.05491111111111121,76.9230769230769,14.893617021276595,66.66666666666666,14.1,257.8125,,,0.0408797491262663,0.017653047137064608,0.002882219074285301,2.315733301387643,0.6656311799571885,0.287438618064665,-4.0368468681771965,2021-10-14 16:22:51,2021-10-14 16:22:51.781,1.1194772994361908,1.20524287038477,1.3218384889869599,0.7518101522088185,0.8744346379720894,0.8625332221041321,0.9089177934125424,0.4595022669061142,1.3385264966475243,0.8574070822964555,1.130119713564665,0.7834252290027932,1.014844693054052,1.174453348753846,1.056537955914346,0.97554776181348,0.6829125473110982,0.8545724301224874,1.232602316210548,0.967195967707308,763.956043956044,836.0805860805863,745.0183150183151,801.4285714285713,776.4468864468864,-0.35742199999999996,0.09185800000000001,0.9417110000000001,-11.185303,-0.5906680000000001,24.135132000000002,31.0,18.0,13.0
836.9447453954497,53.24060907495932,,,,,,,38.90632071957201,39.01703134651192,0.06361305136076048,0.04648612818662132,830.7692307692308,51.32076923076927,0.06177500000000004,69.23076923076928,15.492957746478872,66.90140845070422,14.2,257.8125,,,0.04242754936239524,0.01830479154374106,0.002958146864062793,2.3178384337789657,0.6661520557901455,0.2874022822652319,-4.000592420415724,2021-10-14 16:22:52,2021-10-14 16:22:52.781,1.273389622317708,1.20524287038477,1.52835773720184,0.7518101522088185,0.8071320399472778,0.8625332221041321,0.7573883406711877,0.4595022669061142,1.386211642206593,0.8574070822964555,0.989812309418092,0.7834252290027932,0.8927118379370109,1.174453348753846,0.8409884250808378,0.97554776181348,0.6911824976359143,0.8545724301224874,0.7454001278101762,0.967195967707308,794.1758241758242,501.6483516483516,784.5054945054945,1065.750915750916,594.3223443223443,-0.44043000000000004,0.070435,0.9129639999999999,-5.405730999999999,1.816864,22.325745,34.0,24.0,10.0
835.3737811484291,54.63962071959773,,,,,,,38.84154877556468,38.93812741500202,0.06540739241837586,0.04649601130905414,830.7692307692308,51.32076923076927,0.06177500000000004,69.23076923076928,15.492957746478872,66.19718309859155,14.2,273.4375,,,0.04483239029865253,0.01904846021341493,0.0030912504260921193,2.3535965530210783,0.669418902358307,0.28442381150628404,-3.9607690093683714,2021-10-14 16:22:53,2021-10-14 16:22:53.781,1.369495716406326,1.20524287038477,1.52835773720184,0.7518101522088185,0.7554669325470789,0.8625332221041321,0.7573883406711877,0.4595022669061142,0.9627348566405854,0.8574070822964555,0.989812309418092,0.7834252290027932,0.9654414804326296,1.174453348753846,0.8409884250808378,0.97554776181348,0.8293625662923919,0.8545724301224874,0.7454001278101762,0.967195967707308,778.8644688644687,1122.161172161172,777.2527472527472,877.9853479853481,579.0109890109892,-0.476562,0.11926300000000001,0.886597,-2.175751,-8.919830000000003,8.254395,37.0,28.000000000000004,8.999999999999996
833.7816030123723,54.46965255488532,,,,,,,39.196658422659276,39.329058964003366,0.06532844135453665,0.04701070194046682,830.7692307692308,57.02307692307691,0.06863888888888886,69.23076923076928,16.083916083916083,66.43356643356644,14.3,289.0625,,,0.04854901504306222,0.020090485238834083,0.003314748835279017,2.4165177926722734,0.6747206125937276,0.2792119365475877,-3.9075089471949096,2021-10-14 16:22:54,2021-10-14 16:22:54.784,1.255741122555958,1.20524287038477,1.52835773720184,1.7043741137284385,0.863495433486182,0.8625332221041321,0.7573883406711877,0.3645523359477418,1.1742147028658692,0.8574070822964555,0.989812309418092,0.8788916317468394,1.150427774737658,1.174453348753846,0.8409884250808378,1.217400047552989,0.917415751953066,0.8545724301224874,0.7454001278101762,1.403807236270512,755.4945054945055,967.838827838828,413.003663003663,723.6630036630037,684.5787545787547,-0.279968,0.017273,0.965515,-6.512299,-16.583557,16.875153,39.0,25.0,14.0
833.1360946745561,54.31793605744272,,,,,,,39.20197358417568,39.33533295830035,0.06519695450076578,0.04705350522532451,830.7692307692308,45.61846153846162,0.05491111111111121,69.23076923076928,16.083916083916083,66.43356643356644,14.3,289.0625,,,0.05277399496812995,0.02110135581735344,0.0035836655166254796,2.5009764976679563,0.6813150681167783,0.2724196203971021,-3.858417983817884,2021-10-14 16:22:55,2021-10-14 16:22:55.781,0.850225570737784,1.20524287038477,1.52835773720184,1.6958777687197288,0.7595962847521873,0.8625332221041321,0.7573883406711877,0.3471932255971105,1.2101071352631207,0.8574070822964555,0.989812309418092,0.8470905100097936,1.3791655508317628,1.174453348753846,0.8409884250808378,1.2295041318433402,1.026807429256326,0.8545724301224874,0.7454001278101762,1.403613531801335,827.6190476190477,621.3186813186812,703.5164835164835,724.4688644688645,1089.120879120879,-0.118164,-0.005554,1.020142,1.203766,-27.566986,-0.314026,39.0,24.0,15.0
832.2216245293167,54.415432499127,,,,,,,39.32932196589704,39.458955680420594,0.0653857468915242,0.047258231229140066,830.7692307692308,45.61846153846162,0.05491111111111121,69.23076923076928,16.083916083916083,67.13286713286713,14.3,281.25,,,0.05910683619592934,0.02247074757351681,0.004020097448015284,2.6303902886431096,0.6905191280330137,0.26251584451721,-3.795540923488893,2021-10-14 16:22:56,2021-10-14 16:22:56.781,1.08821897803067,1.20524287038477,1.52835773720184,1.6958777687197288,0.8339729096765559,0.8625332221041321,0.7573883406711877,0.3471932255971105,1.2681191933791292,0.8574070822964555,0.989812309418092,0.8470905100097936,1.319218819288387,1.174453348753846,0.8409884250808378,1.2295041318433402,1.118786171300292,0.8545724301224874,0.7454001278101762,1.403613531801335,765.1648351648352,574.5787545787547,779.2673992673992,660.0,649.1208791208793,0.12475599999999999,-0.07434099999999999,1.018738,5.637512,-3.080444,1.0841370000000001,38.0,27.0,11.0
831.4147391070468,54.488480456474704,,,,,,,39.14346711246717,39.27898141168845,0.0655370633854726,0.0470805547114884,830.7692307692308,45.61846153846162,0.05491111111111121,65.38461538461547,16.083916083916083,66.43356643356644,14.3,281.25,,,0.06179668292413777,0.022496698613107883,0.004243076337912231,2.746922292328326,0.6979800684061145,0.254095308904606,-3.79438670884373,2021-10-14 16:22:57,2021-10-14 16:22:57.781,1.425142941505334,1.20524287038477,1.52835773720184,1.6958777687197288,1.096661270790607,0.8625332221041321,0.7573883406711877,0.3471932255971105,1.4122748481467209,0.8574070822964555,0.989812309418092,0.8470905100097936,1.058538369122881,1.174453348753846,0.8409884250808378,1.2295041318433402,1.102020036575569,0.8545724301224874,0.7454001278101762,1.403613531801335,825.2014652014653,1197.509157509158,756.7032967032968,760.3296703296703,719.6336996336996,0.093445,-0.039612,1.0073239999999999,5.9889220000000005,-4.478607,0.5906680000000001,37.0,30.0,7.0
830.5540613232919,54.865328125382675,,,,,,,39.180708611857405,39.315643534527176,0.06605870789189533,0.04717418219523506,823.0769230769231,45.61846153846162,0.055424299065420665,73.0769230769232,16.083916083916083,66.43356643356644,14.3,273.4375,,,0.0640224976190225,0.022079458120025697,0.004496731859742232,2.899640800557292,0.7066603205395358,0.24370615850201874,-3.813107599539897,2021-10-14 16:22:58,2021-10-14 16:22:58.788,1.0149771632317879,1.20524287038477,0.8188896815781557,0.524652551546998,0.8742819552047248,0.8625332221041321,0.02490660778028735,0.1546892677759926,1.42009034406908,0.8574070822964555,0.4942861106070454,1.2995577721074658,0.9886012591231416,1.174453348753846,1.3543983365306742,1.2845334124324261,0.905713338297634,0.8545724301224874,1.3248111796336821,1.3518433333278952,798.2051282051282,0.0,652.3443223443223,723.2600732600732,524.2124542124542,0.102112,-0.037108999999999996,1.014282,6.721649,6.5347290000000005,-0.643005,36.0,36.0,0.0
830.1237224314148,54.98332186570187,,,,,,,39.196658422659276,39.33356732456925,0.06623509289031868,0.04721785122325271,823.0769230769231,45.61846153846162,0.055424299065420665,73.0769230769232,16.083916083916083,66.43356643356644,14.3,273.4375,,,0.06602139944602332,0.021845039351223186,0.004759629559856816,3.0222604951419574,0.7127734191576562,0.2358411593915821,-3.823781415196832,2021-10-14 16:22:59,2021-10-14 16:22:59.781,-0.01573751803738281,1.20524287038477,0.8444382357609191,0.5589489299302736,0.4562580947965224,0.8625332221041321,-0.07048420168171375,0.1416763645343318,1.085179373049561,0.8574070822964555,0.3851652901061253,1.1107132731396951,0.7889459280847115,1.174453348753846,1.330015538072066,1.267974064916009,0.8919967977195811,0.8545724301224874,1.3040325216167759,1.3234449086826552,817.5457875457878,1627.8388278388281,777.6556776556778,765.1648351648352,627.3626373626374,-0.195496,0.018799,1.004944,7.357178,18.729401,1.7720029999999998,37.0,85.0,-48.0
