HRV_MeanNN,HRV_SDNN,HRV_SDANN1,HRV_SDNNI1,HRV_SDANN2,HRV_SDNNI2,HRV_SDANN5,HRV_SDNNI5,HRV_RMSSD,HRV_SDSD,HRV_CVNN,HRV_CVSD,HRV_MedianNN,HRV_MadNN,HRV_MCVNN,HRV_IQRNN,HRV_pNN50,HRV_pNN20,HRV_HTI,HRV_TINN,HRV_ULF,HRV_VLF,HRV_LF,HRV_HF,HRV_VHF,HRV_LFHF,HRV_LFn,HRV_HFn,HRV_LnHF,Time,TimeStamp,Delta_TP9,Delta_AF7,Delta_AF8,Delta_TP10,Theta_TP9,Theta_AF7,Theta_AF8,Theta_TP10,Alpha_TP9,Alpha_AF7,Alpha_AF8,Alpha_TP10,Beta_TP9,Beta_AF7,Beta_AF8,Beta_TP10,Gamma_TP9,Gamma_AF7,Gamma_AF8,Gamma_TP10,RAW_TP9,RAW_AF7,RAW_AF8,RAW_TP10,AUX_RIGHT,Accelerometer_X,Accelerometer_Y,Accelerometer_Z,Gyro_X,Gyro_Y,Gyro_Z,Attention,Meditation,A_M
833.7486457204767,51.12235301714307,,,,,,,38.341328784625475,38.457407618556346,0.061316265135238836,0.04598667593815777,838.4615384615386,45.61846153846162,0.05440733944954139,67.30769230769238,19.014084507042245,58.450704225352105,10.142857142857142,179.6875,,,0.042833992755689665,0.01854796208559497,0.002444027615045975,2.309363829730713,0.6711058899092771,0.2906020616021914,-3.9873953565786384,2021-10-14 16:13:00,2021-10-14 16:13:00.231,1.019175093259319,1.2376729664179709,1.283612585989117,1.025380624498731,0.5512998559636271,0.9834252900024208,0.8824709744097758,0.46716765495592794,1.212054957955733,0.8940961715032328,0.8059728836367956,1.140084485669312,1.2845200852565248,1.256860135829146,0.9066069742314316,1.4153597170736745,1.128051608135304,1.196006886439461,0.8617865440495859,1.448830577951766,820.7692307692308,772.8205128205127,767.5824175824176,793.3699633699632,808.6813186813188,-0.44091800000000003,-0.002991,0.910645,2.781372,-5.226287999999999,1.607513,50.0,45.0,5.0
834.8862405200432,52.15295919365608,,,,,,,38.357743196558864,38.47564233650267,0.062467144219756764,0.045943676317705455,838.4615384615386,45.61846153846162,0.05440733944954139,67.30769230769238,19.014084507042245,58.450704225352105,10.142857142857142,179.6875,,,0.044488275184339836,0.01907271147334038,0.002399152639084677,2.3325616416168744,0.6744721229920421,0.2891551121129277,-3.959496684194516,2021-10-14 16:13:01,2021-10-14 16:13:01.225,1.126742188448278,1.2376729664179709,1.283612585989117,1.0666160915346552,0.9926197829042848,0.9834252900024208,0.8824709744097758,0.8208566655952867,1.026574647318472,0.8940961715032328,0.8059728836367956,1.3680913441839226,1.162407005952008,1.256860135829146,0.9066069742314316,1.3139147018925401,1.077005054401518,1.196006886439461,0.8617865440495859,1.27652006269469,750.2564102564102,751.4652014652015,773.2234432234433,842.5274725274727,622.5274725274726,-0.49786400000000003,0.002625,0.877014,3.947754,-4.493561,1.8093869999999999,39.0,38.0,1.0
835.8071505958832,52.54883102559886,,,,,,,38.48880648230618,38.61608727723692,0.06287195675238542,0.04604986503748603,838.4615384615386,45.61846153846162,0.05440733944954139,67.30769230769226,19.014084507042245,59.15492957746479,10.142857142857142,179.6875,,,0.04599157011012329,0.019486757813948492,0.002359403058883752,2.36014479931612,0.677964451990277,0.287255448134676,-3.938020130560272,2021-10-14 16:13:02,2021-10-14 16:13:02.237,0.8034485495876514,1.2376729664179709,1.283612585989117,1.2903208995898998,0.7790797432240709,0.9834252900024208,0.8824709744097758,1.0878685879747458,0.8686516356236079,0.8940961715032328,0.8059728836367956,1.3680913441839226,1.065218184332778,1.256860135829146,0.9066069742314316,1.2715242979728332,1.1569794860473779,1.196006886439461,0.8617865440495859,1.293110713431792,880.0,767.5824175824176,803.8461538461539,817.5457875457878,864.6886446886447,-0.5523680000000001,-0.0014039999999999999,0.8804930000000001,18.662109,-9.465637,-30.385741999999997,28.000000000000004,34.0,-5.9999999999999964
836.7280606717227,53.06023256632598,,,,,,,38.445168365686676,38.56668660307609,0.0634139513902873,0.045947028876769117,838.4615384615386,45.61846153846162,0.05440733944954139,69.23076923076928,19.014084507042245,58.450704225352105,10.142857142857142,179.6875,,,0.04755395147075221,0.0198671029836716,0.002313841864053936,2.393602706435655,0.6819247461640203,0.2848947088547888,-3.918690031554761,2021-10-14 16:13:03,2021-10-14 16:13:03.225,0.5268165722312198,1.2376729664179709,1.283612585989117,1.2903208995898998,0.301841750739125,0.9834252900024208,0.8824709744097758,1.0878685879747458,0.6208195546509997,0.8940961715032328,0.8059728836367956,1.3680913441839226,1.078099278579632,1.256860135829146,0.9066069742314316,1.2715242979728332,0.8247401931405459,1.196006886439461,0.8617865440495859,1.293110713431792,735.3479853479854,716.8131868131868,777.2527472527472,820.7692307692308,637.032967032967,-0.30188000000000004,0.052307000000000006,0.947083,12.187195,-13.271332000000001,-14.340515,20.0,34.0,-14.0
837.486457204767,52.96892128525886,,,,,,,39.388715348515895,39.52910110583841,0.06324749592017324,0.047032062440724685,838.4615384615386,45.61846153846162,0.05440733944954139,69.23076923076928,19.718309859154925,59.859154929577464,10.142857142857142,179.6875,,,0.0494495922267979,0.020266641263743567,0.002245079240668039,2.43995004319052,0.6871691239361131,0.2816324563094575,-3.898779032112616,2021-10-14 16:13:04,2021-10-14 16:13:04.225,0.4615389974104413,1.2376729664179709,0.1055881121386644,1.2903208995898998,0.07623825600186028,0.9834252900024208,0.2986494238021445,1.0878685879747458,1.033940628572757,0.8940961715032328,0.9752996444883422,1.3680913441839226,1.034153169438228,1.256860135829146,1.243517538737961,1.2715242979728332,0.7096386540474928,1.196006886439461,1.092622459350473,1.293110713431792,873.5531135531136,625.3479853479854,792.1611721611722,816.3369963369963,1093.150183150183,-0.18219000000000002,0.09350599999999999,0.986389,4.673004,-30.08667,-14.617157,17.0,24.0,-7.0
837.4322860238353,53.01144686649332,,,,,,,39.34074206619889,39.48038731568165,0.06330236814512366,0.046977818652049384,838.4615384615386,45.61846153846162,0.05440733944954139,69.23076923076928,19.718309859154925,59.15492957746479,10.142857142857142,179.6875,,,0.05081201548496304,0.02050650599815013,0.002180823469503293,2.477848517419142,0.6913260998138218,0.2790025681367672,-3.887013077424215,2021-10-14 16:13:05,2021-10-14 16:13:05.225,1.415635335567115,1.2376729664179709,0.2442912786569087,1.377492976753444,0.9826618584953464,0.9834252900024208,0.5681111078987063,1.039688684622085,1.4462892446807734,0.8940961715032328,0.9987575801141272,1.5971598058470908,1.159454185375301,1.256860135829146,1.105089754569225,1.3298204938003408,0.6819763988547948,1.196006886439461,0.7807939705921861,0.8282046683851305,840.1098901098901,646.3003663003664,807.0695970695973,818.3516483516484,892.4908424908424,0.134888,0.06134,1.011414,8.71048,-10.101166000000001,-10.789032,18.0,14.000000000000002,3.9999999999999982
837.2697724810401,53.091080084572276,,,,,,,39.32473796679113,39.46398411029685,0.06340976568071972,0.04696782239046094,838.4615384615386,45.61846153846162,0.05440733944954139,69.23076923076928,19.718309859154925,59.15492957746479,10.142857142857142,179.6875,,,0.051998867799168604,0.020687708961891385,0.0021086507788536843,2.5135150487158917,0.6952163862516489,0.2765912965616905,-3.8782155250189443,2021-10-14 16:13:06,2021-10-14 16:13:06.225,1.6153607168934072,1.2376729664179709,0.3138638723116113,1.20075823434738,1.241438820403117,0.9834252900024208,0.2942118281974723,0.9387039381548862,1.2441269464350382,0.8940961715032328,0.8836675005414504,1.0754902257274108,1.043127328272496,1.256860135829146,1.207991818931043,1.2003883771918769,0.7193394160715991,1.196006886439461,0.7023229481367737,0.704046060925817,807.4725274725273,1354.249084249084,792.9670329670329,787.7289377289377,780.8791208791209,0.167603,0.17565899999999998,1.002441,7.551575,-13.630219,-11.843262,22.0,18.0,4.0
836.4174287251211,53.38723371605671,,,,,,,39.20728802513878,39.344235053156474,0.0638284567998903,0.04687526428627757,838.4615384615386,45.61846153846162,0.05440733944954139,76.923076923077,19.58041958041958,58.74125874125875,10.214285714285714,179.6875,,,0.053012488896880115,0.020834298670424932,0.002031779010638273,2.5444815654934105,0.6986490558229652,0.2745742257666887,-3.8711546758009816,2021-10-14 16:13:07,2021-10-14 16:13:07.225,1.6153607168934072,1.2376729664179709,0.3713302039166829,0.6288189523621581,1.241438820403117,0.9834252900024208,0.1132362366142876,0.5135144927105602,1.2441269464350382,0.8940961715032328,0.7517146666345342,0.8255728906241505,1.043127328272496,1.256860135829146,1.068797340030953,0.8819288379443008,0.7193394160715991,1.196006886439461,0.6555258583778221,0.6734800007905741,782.4908424908424,646.3003663003664,800.6227106227108,793.7728937728937,774.8351648351648,0.133484,0.1604,0.9912110000000001,2.773895,-7.5740050000000005,-3.3047489999999997,32.0,0.0,32.0
836.6738894907909,53.46420134864976,,,,,,,39.110724198417614,39.249202171578425,0.06390088422765132,0.04674548194903134,838.4615384615386,45.61846153846162,0.05440733944954139,75.0000000000001,19.014084507042245,58.450704225352105,10.142857142857142,179.6875,,,0.05406698588706254,0.02101518911736861,0.0019345486443266766,2.5727575224330157,0.7020161768194687,0.27286527031726776,-3.86250981140454,2021-10-14 16:13:08,2021-10-14 16:13:08.240,0.8063150749096903,1.2376729664179709,0.829337209953427,0.7404568542030429,0.5594195514863953,0.9834252900024208,0.2782760084051012,0.5553076484921836,1.477610053516554,0.8940961715032328,0.7425510096790253,0.9420518717516552,1.1775476721716298,1.256860135829146,0.8366985814140026,0.487308489175052,1.0726780368149158,1.196006886439461,0.4487913402035733,0.5955523854338741,744.6153846153846,1155.201465201465,794.981684981685,784.1025641025641,666.4468864468864,0.158203,0.180176,0.9780270000000001,3.4468080000000003,-6.400146,-2.601929,40.0,19.0,21.0
836.9447453954497,53.6489212718773,,,,,,,39.622415278749955,39.76333287941426,0.0641009117591492,0.047341733724642336,838.4615384615386,45.61846153846162,0.05440733944954139,75.0000000000001,19.718309859154925,59.15492957746479,10.142857142857142,179.6875,,,0.0547141855141341,0.021174715016052455,0.0018555756083542567,2.5839396408714603,0.7037694281537548,0.2723629519133819,-3.854947497044505,2021-10-14 16:13:09,2021-10-14 16:13:09.225,0.5064017350059349,1.2376729664179709,0.8227008709020976,0.7020439564982197,0.4176718642608528,0.9834252900024208,0.3466929582557103,0.4622805479814995,1.352429025376482,0.8940961715032328,0.3581116057894098,0.9709884319088268,1.145211585573213,1.256860135829146,0.6925599239716649,0.6307081592977144,1.028547461931157,1.196006886439461,0.6295632004038856,0.6396850404826292,725.6776556776558,954.9450549450548,788.9377289377289,750.6593406593408,753.0769230769231,0.159851,0.19531199999999999,0.976318,3.656158,-3.693542,1.8093869999999999,47.0,23.0,24.0
837.0530877573133,53.73005735699775,,,,,,,39.43663027305495,39.57480103715631,0.0641895456128772,0.04711365485636773,838.4615384615386,45.61846153846162,0.05440733944954139,75.0000000000001,19.718309859154925,58.450704225352105,10.142857142857142,179.6875,,,0.05523298262574847,0.02139235928198364,0.0017814372925735824,2.5819023464263218,0.7044414167892911,0.27283813338809143,-3.844721463607284,2021-10-14 16:13:10,2021-10-14 16:13:10.225,1.1305950896782453,1.2376729664179709,0.3366071525933778,1.005889045019729,0.8533717179379919,0.9834252900024208,0.1685172056726688,0.7007985388098567,1.327348416055047,0.8940961715032328,0.6291796089961393,0.9323053859320122,0.96890745885641,1.256860135829146,1.0359452457193192,0.7152358962119553,0.9745264328206104,1.196006886439461,0.998999108667505,0.6012028898874408,878.3882783882782,614.8717948717949,794.1758241758242,811.9047619047618,928.3516483516484,0.14898699999999998,0.175171,0.984375,4.837494,-5.734711,-0.029907,51.0,38.0,13.0
837.1614301191764,53.717185049153784,,,,,,,39.580027018122394,39.7210949989132,0.06416586230149987,0.047278846819887366,838.4615384615386,45.61846153846162,0.05440733944954139,75.0000000000001,19.718309859154925,58.450704225352105,10.142857142857142,179.6875,,,0.05562245114586376,0.021686500905913758,0.0017118539327915384,2.564842128620938,0.7038962770985345,0.274440391181895,-3.8310652900750566,2021-10-14 16:13:11,2021-10-14 16:13:11.225,0.9014009445216804,1.2376729664179709,0.5093196731206608,0.910573322741966,0.6292058531311658,0.9834252900024208,-0.019793786128184814,0.5950816756827804,1.248396099914532,0.8940961715032328,0.5925612933812718,0.9275336203349044,1.0275716974462672,1.256860135829146,1.068514233604304,0.8277806272712779,0.9949166963424838,1.196006886439461,1.089058183328788,0.4877958790958433,743.4065934065933,861.4652014652015,807.0695970695973,774.8351648351648,648.7179487179487,0.128235,0.169922,0.9816889999999999,2.1682740000000003,-7.431946000000001,3.342133,49.0,72.0,-23.0
837.4322860238353,53.85962635009975,,,,,,,39.72290611494786,39.864370815635475,0.06431520165747083,0.04743417083135633,838.4615384615386,51.32076923076927,0.06120825688073399,75.0000000000001,19.718309859154925,58.450704225352105,10.923076923076923,179.6875,,,0.05592147296681245,0.022184084194947117,0.0016315301183156875,2.520792495889901,0.7013232471157262,0.27821538197182794,-3.808380175375325,2021-10-14 16:13:12,2021-10-14 16:13:12.225,0.4940709435988372,1.2376729664179709,0.1674764064893791,0.456676569037998,0.1844474418731766,0.9834252900024208,-0.08524752021383887,0.3865171618286236,1.1785775545261679,0.8940961715032328,0.4858725569847755,0.9402624116587738,0.9012469520612014,1.256860135829146,0.7488583703515185,0.8364808342414001,0.9543199820333176,1.196006886439461,0.7319954596706919,0.5044652121009664,756.7032967032968,695.8608058608058,804.6520146520148,784.1025641025641,806.2637362637363,0.11907999999999999,0.173828,0.995239,5.704803,-5.069275,-8.755341,47.0,56.00000000000001,-9.000000000000009
837.703141928494,54.11676881256649,,,,,,,39.638299190103055,39.7758447756551,0.06460136784014339,0.04731783516873399,838.4615384615386,57.02307692307691,0.06800917431192659,75.0000000000001,19.718309859154925,58.450704225352105,10.923076923076923,179.6875,,,0.05447864133972728,0.02206495724185424,0.001530547013636464,2.4690118699341346,0.6977808200704033,0.28261541735278,-3.8137645740891872,2021-10-14 16:13:13,2021-10-14 16:13:13.225,0.467737618984687,1.2376729664179709,0.2457982947873067,0.3250631925181017,0.27946530357472804,0.9834252900024208,-0.151906751868324,0.2475646865689085,1.205857366655618,0.8940961715032328,0.4826203248583956,0.9631163117843196,0.7759573425828598,1.256860135829146,0.6842016897557227,0.6918335903357037,0.7297009406789399,1.196006886439461,0.4952239654991274,0.3885184340812926,808.2783882783882,1181.3919413919411,790.952380952381,794.5787545787546,805.4578754578755,0.145569,0.171204,0.982849,4.082336,-13.981628,0.747681,42.0,57.99999999999999,-15.999999999999993
837.703141928494,54.163276741371526,,,,,,,40.02286475632021,40.16521338308217,0.06465688622902993,0.04777690658313962,838.4615384615386,57.02307692307691,0.06800917431192659,75.0000000000001,20.42253521126761,59.859154929577464,10.923076923076923,179.6875,,,0.05008906222992725,0.020973832637344203,0.001352019451434835,2.388169253374463,0.6916953876307798,0.2896341566467368,-3.8644796831314534,2021-10-14 16:13:14,2021-10-14 16:13:14.231,0.2960878480108683,1.2376729664179709,0.04096177880604244,0.2756919232464374,0.4366789699259949,0.9834252900024208,-0.2216743276819912,-0.07891015170283087,1.087258022732795,0.8940961715032328,0.4625120577949615,0.6520894535300904,0.9651264719294091,1.256860135829146,0.6314510894672128,0.6111186883274331,0.710219901716987,1.196006886439461,0.4092370679836265,0.3489590605131567,806.6666666666667,1100.0,790.1465201465203,790.5494505494507,803.4432234432236,0.181335,0.156433,0.9865719999999999,3.3197019999999995,-3.476715,1.3981629999999998,32.0,57.99999999999999,-25.999999999999996
837.3239436619717,54.34610999024568,,,,,,,39.68062520236474,39.82193900824048,0.06490452160315295,0.047389813109636615,838.4615384615386,57.02307692307691,0.06800917431192659,76.923076923077,19.718309859154925,59.859154929577464,10.923076923076923,179.6875,,,0.04777136026480895,0.020630632566044815,0.001256967789905724,2.3155547999741914,0.6857891625011171,0.2961662416751099,-3.8809782899335374,2021-10-14 16:13:15,2021-10-14 16:13:15.232,0.38012588226321103,1.2376729664179709,0.1347742964835934,0.3321949741347272,0.495305324498275,0.9834252900024208,-0.07862935310384077,0.2335081088454475,0.7270854660235999,0.8940961715032328,0.2161138832615669,0.4159726954503747,0.9250813854089248,1.256860135829146,0.5764721452514522,0.440410783387575,0.7790425749932405,1.196006886439461,0.4583699921441596,0.3580209451511347,888.8644688644687,1294.212454212454,768.3882783882782,793.7728937728937,698.2783882783882,0.097961,0.086426,0.994202,-2.758942,4.934692,34.453125,34.0,45.0,-11.0
837.486457204767,54.175279345205794,,,,,,,39.638299190103055,39.779612647907754,0.06468794674725091,0.047330077816901836,838.4615384615386,57.02307692307691,0.06800917431192659,76.923076923077,19.718309859154925,59.15492957746479,10.923076923076923,179.6875,,,0.044687893797596086,0.01993267377964681,0.001152982366277143,2.241941763138008,0.6794204332283985,0.3030499919308454,-3.915394995218665,2021-10-14 16:13:16,2021-10-14 16:13:16.232,1.059050981999335,1.2376729664179709,0.6046890840235157,0.7775072093395703,0.7871062451946966,0.9834252900024208,0.5080985840733669,0.7807080154403976,1.4059443848756539,0.8940961715032328,0.7203550516152215,1.287082753604724,0.9047963921813856,1.256860135829146,0.9655425520016062,0.5347883173347919,0.5453893616534062,1.196006886439461,0.6743184544311401,0.5727698953657789,826.4102564102565,1582.7106227106228,784.5054945054945,780.4761904761905,781.6849816849817,0.08154299999999999,0.096313,1.0067139999999999,3.603821,-11.065674000000001,2.8561400000000003,38.0,48.0,-10.0
837.547068316299,53.8963510836272,,,,,,,39.56699544983686,39.70701883452768,0.06435023549419587,0.04724151865205313,838.4615384615386,57.02307692307691,0.06800917431192659,73.0769230769231,19.58041958041958,59.44055944055943,11.0,179.6875,,,0.041773644270570634,0.0193733542661312,0.0010598727521236898,2.1562422127179066,0.6715278136496571,0.3114343136818603,-3.943856648453332,2021-10-14 16:13:17,2021-10-14 16:13:17.225,0.6199929157942583,1.2376729664179709,0.4564699881238363,1.340410716261434,0.8475923417087565,0.9834252900024208,0.4625837044497058,0.1822266384708539,1.431388299642865,0.8940961715032328,0.9219186346445896,1.238546894449612,1.025264412616782,1.256860135829146,1.3210876735736972,1.0235694309734542,0.8601544386916681,1.196006886439461,1.1513759437916469,1.0102957828844878,783.6996336996338,438.38827838827837,770.0,815.5311355311355,720.8424908424909,-0.034058,0.090515,1.000061,3.140259,1.6972349999999998,1.6523740000000002,54.0,44.0,10.0
838.0281690140845,53.81711201765465,,,,,,,39.601226819866426,39.74206870060836,0.06421873871014253,0.04725524544891624,838.4615384615386,51.32076923076927,0.06120825688073399,69.23076923076928,19.718309859154925,59.15492957746479,10.923076923076923,179.6875,,,0.039972241407011326,0.019052863084202697,0.0010062216630656415,2.0979650790727358,0.6658563781230358,0.31738201210543154,-3.960537895568309,2021-10-14 16:13:18,2021-10-14 16:13:18.225,0.5818603949332345,1.2376729664179709,0.6866462425124205,1.4522306573492745,0.7883522292566654,0.9834252900024208,0.3160953438402789,0.3978868796500851,1.226345558413875,0.8940961715032328,0.8594697443529001,1.030654416919579,1.0875249236288809,1.256860135829146,1.4452256465994755,1.156882924797231,1.033501188634615,1.196006886439461,1.440318184761205,1.094269827442194,836.0805860805863,0.0,858.6446886446887,805.8608058608058,676.1172161172161,-0.342712,0.098267,0.94458,4.433746,6.9384770000000024,-1.031799,85.0,44.0,41.0
838.6240520043337,53.77571817361483,,,,,,,39.68062520236474,39.82148736297975,0.06412374894935273,0.047316345277156065,838.4615384615386,51.32076923076927,0.06120825688073399,69.23076923076928,19.718309859154925,59.15492957746479,10.923076923076923,179.6875,,,0.03828451893990829,0.01865609656917856,0.0009587409614909148,2.0521183945390558,0.6612252928815023,0.32221595724745017,-3.9815822925207116,2021-10-14 16:13:19,2021-10-14 16:13:19.225,1.4292550532885548,1.2376729664179709,0.890256650732995,1.57730949954216,0.9052232593065496,0.9834252900024208,0.1682973762743306,0.5829605171061811,1.2086818134735948,0.8940961715032328,0.7948399668049645,1.030654416919579,1.3135591223723602,1.256860135829146,1.5078868378453112,1.2479445930281392,1.1934495493545,1.196006886439461,1.530517700864827,1.0217211499798142,853.4065934065933,0.0,754.6886446886447,838.0952380952382,735.3479853479854,-0.46948199999999995,0.111206,0.883972,-7.2824100000000005,-1.936493,23.095856,93.0,77.0,16.0
838.8407367280607,53.868185538650884,,,,,,,39.68062520236474,39.82148736297975,0.06421741718072298,0.047304122779183284,838.4615384615386,57.02307692307691,0.06800917431192659,69.23076923076928,19.718309859154925,59.15492957746479,11.833333333333336,203.125,,,0.03725615072295205,0.01848085142664801,0.0009298513128322363,2.015932592219829,0.6574593161000423,0.32613159717611684,-3.991020140959357,2021-10-14 16:13:20,2021-10-14 16:13:20.225,1.6137595196792192,1.2376729664179709,0.890256650732995,1.57730949954216,1.0012083124429492,0.9834252900024208,0.1682973762743306,0.5829605171061811,1.165612443363557,0.8940961715032328,0.7948399668049645,1.030654416919579,1.2221774493777442,1.256860135829146,1.5078868378453112,1.2479445930281392,1.237757622547492,1.196006886439461,1.530517700864827,1.0217211499798142,789.7435897435898,739.7802197802197,886.4468864468864,709.9633699633699,757.1062271062273,-0.530579,0.12200899999999999,0.843018,-6.071167,-0.343933,10.661926,100.0,92.0,8.0
838.4073672806066,54.0561448090592,,,,,,,40.42972826430181,40.570871023668495,0.0644747970004027,0.04822205748911361,838.4615384615386,57.02307692307691,0.06800917431192659,69.23076923076928,20.42253521126761,59.859154929577464,12.909090909090908,203.125,,,0.03693343404510136,0.01841759643700664,0.0009189019916895037,2.0053340929379195,0.6563617978802387,0.3273079534186916,-3.994448743259394,2021-10-14 16:13:21,2021-10-14 16:13:21.229,1.1612887541192791,1.2376729664179709,0.890256650732995,1.57730949954216,0.6512190321183892,0.9834252900024208,0.1682973762743306,0.5829605171061811,1.291762684634499,0.8940961715032328,0.7948399668049645,1.030654416919579,1.1116923852185259,1.256860135829146,1.5078868378453112,1.2479445930281392,1.075864737447606,1.196006886439461,1.530517700864827,1.0217211499798142,882.4175824175826,936.8131868131868,743.809523809524,850.1831501831501,739.3772893772892,-0.5578,0.08569299999999999,0.832275,17.652739999999994,-10.497437,-17.877045000000006,88.0,83.0,5.0
836.8364030335861,54.74528695858372,,,,,,,40.001888410667426,40.14356471796194,0.06541934213202069,0.04780132444723723,838.4615384615386,57.02307692307691,0.06800917431192659,76.923076923077,19.718309859154925,59.859154929577464,12.909090909090908,203.125,,,0.037868325370384974,0.018790157398026426,0.0009364528749543328,2.015327736124359,0.6574940130998647,0.3262466949243103,-3.974422088900712,2021-10-14 16:13:22,2021-10-14 16:13:22.225,0.9450658059024164,1.2376729664179709,0.890256650732995,1.57730949954216,0.6099833983862543,0.9834252900024208,0.1682973762743306,0.5829605171061811,1.354063134275599,0.8940961715032328,0.7948399668049645,1.030654416919579,1.106188879070811,1.256860135829146,1.5078868378453112,1.2479445930281392,0.9028404515538628,1.196006886439461,1.530517700864827,1.0217211499798142,869.9267399267401,1625.4212454212452,800.2197802197803,830.4395604395604,840.9157509157509,-0.128906,0.209106,1.0040280000000001,20.531311,-28.47168,-45.720673,79.0,71.0,8.0
836.9447453954497,54.70240745793861,,,,,,,40.12758200687834,40.270304834762385,0.06535964023777001,0.04794531804834785,838.4615384615386,57.02307692307691,0.06800917431192659,76.923076923077,20.42253521126761,59.859154929577464,12.909090909090908,203.125,,,0.038190805302736205,0.01872286351785395,0.0009383378049347068,2.0397951021924507,0.6601465969874597,0.32363377884274186,-3.9780098539334237,2021-10-14 16:13:23,2021-10-14 16:13:23.229,0.9569283341544356,1.2376729664179709,0.890256650732995,1.57730949954216,0.6169915809220454,0.9834252900024208,0.1682973762743306,0.5829605171061811,1.354063134275599,0.8940961715032328,0.7948399668049645,1.030654416919579,1.1182637582358022,1.256860135829146,1.5078868378453112,1.2479445930281392,0.8972286799752129,1.196006886439461,1.530517700864827,1.0217211499798142,635.0183150183151,1625.4212454212452,1625.4212454212452,677.7289377289378,680.5494505494506,0.050963999999999995,0.191956,0.9980469999999999,1.75705,-16.209717,-14.639586999999999,81.0,74.0,7.0
836.5113759479956,54.872431838171224,,,,,,,40.211159461666654,40.350020996388274,0.06559675506622464,0.048070068881127234,838.4615384615386,57.02307692307691,0.06800917431192659,76.923076923077,20.42253521126761,59.859154929577464,14.2,93.75,,,0.03902442139903118,0.01877695083498449,0.0009505032441486953,2.0783151504195443,0.664224266568902,0.31959747126648075,-3.975125180738608,2021-10-14 16:13:24,2021-10-14 16:13:24.225,0.9569283341544356,1.2376729664179709,0.890256650732995,1.57730949954216,0.6169915809220454,0.9834252900024208,0.1682973762743306,0.5829605171061811,1.354063134275599,0.8940961715032328,0.7948399668049645,1.030654416919579,1.1182637582358022,1.256860135829146,1.5078868378453112,1.2479445930281392,0.8972286799752129,1.196006886439461,1.530517700864827,1.0217211499798142,811.098901098901,1131.025641025641,808.6813186813188,840.5128205128206,674.5054945054945,0.115601,0.151428,0.979614,1.9215389999999999,-13.764801,-8.015137,75.0,66.0,9.0
835.8613217768145,55.02861370942728,,,,,,,40.02810712516271,40.169467093567185,0.0658346214566447,0.04788845479782914,838.4615384615386,57.02307692307691,0.06800917431192659,76.923076923077,20.42253521126761,59.15492957746479,14.2,93.75,,,0.04072705017188048,0.018996489525914654,0.000978817972451806,2.1439250718571663,0.6709302856591141,0.3129448386355794,-3.963501078680225,2021-10-14 16:13:25,2021-10-14 16:13:25.229,0.9569283341544356,1.2376729664179709,1.0579267749522328,1.380159662012781,0.6169915809220454,0.9834252900024208,0.5712443867021373,0.6167983962368121,1.354063134275599,0.8940961715032328,1.01286064899036,1.3544442720970702,1.1182637582358022,1.256860135829146,0.9591489935881388,0.9161401249794102,0.8972286799752129,1.196006886439461,0.8290755959319247,0.7683516126469768,763.956043956044,150.29304029304032,794.5787545787546,828.8278388278387,967.838827838828,0.185364,0.122925,0.981384,5.465546,-14.998474,4.620667,68.0,63.0,5.0
835.6643356643357,54.90785418764942,,,,,,,39.88691406747522,40.02751647003828,0.06570563304463488,0.047730784197899216,838.4615384615386,57.02307692307691,0.06800917431192659,76.923076923077,20.27972027972028,59.44055944055943,14.3,93.75,,,0.042144030267610495,0.019079588695801977,0.0010000461438481906,2.2088542336807984,0.6772990661183804,0.30662913640514,-3.9591361700181436,2021-10-14 16:13:26,2021-10-14 16:13:26.228,0.9569283341544356,1.2376729664179709,0.8607469075028672,1.22698837736349,0.6169915809220454,0.9834252900024208,0.4063854732232294,0.4356203540149598,1.354063134275599,0.8940961715032328,1.01286064899036,1.3566403163669207,1.1182637582358022,1.256860135829146,0.8317955963027844,0.9301981587142574,0.8972286799752129,1.196006886439461,0.5405749014239553,0.8741178367787495,815.1282051282053,375.5311355311355,764.7619047619047,783.2967032967032,634.6153846153846,0.293823,0.126099,0.96167,5.7272339999999975,-0.672913,-2.901001,70.0,69.0,1.0
835.2339967724582,54.944778947336026,,,,,,,39.94954731317421,40.08727613309686,0.06578369553880188,0.04783036546350928,830.7692307692308,57.02307692307708,0.06863888888888907,76.923076923077,20.27972027972028,60.13986013986013,14.3,93.75,,,0.04380787736743768,0.01917958735479917,0.0010237417549876894,2.2840886280317148,0.6843782484091236,0.2996285870915955,-3.9539087241066033,2021-10-14 16:13:27,2021-10-14 16:13:27.228,0.9569283341544356,1.2376729664179709,0.7452771913031137,0.7432177961733385,0.6169915809220454,0.9834252900024208,0.3764027238888135,0.3340555075804359,1.354063134275599,0.8940961715032328,0.5855832235001502,1.053230918645124,1.1182637582358022,1.256860135829146,0.2851490337742112,0.7718992846103566,0.8972286799752129,1.196006886439461,-0.1610958016208191,0.8907059996400253,817.948717948718,1622.197802197802,771.6117216117218,872.7472527472528,666.0439560439562,0.23712199999999997,0.091187,0.9725950000000001,3.147736,8.19458,19.417267000000002,73.0,72.0,1.0
834.8036578805809,54.85688270088308,,,,,,,39.78230619245822,39.92298090437855,0.06571231712155529,0.047654686005399724,830.7692307692308,57.02307692307691,0.06863888888888886,76.923076923077,20.27972027972028,59.44055944055943,14.3,93.75,,,0.04572810542980048,0.019303727172066548,0.0010491925712647011,2.368874415919601,0.6920005449369653,0.29212208983578786,-3.9474570839924685,2021-10-14 16:13:28,2021-10-14 16:13:28.225,0.9569283341544356,1.2376729664179709,0.7826823581672341,0.5697087263307936,0.6169915809220454,0.9834252900024208,0.3792950006152088,0.3340502462700259,1.354063134275599,0.8940961715032328,0.4933094828329335,1.0234993335625022,1.1182637582358022,1.256860135829146,0.2097933159240457,0.5444660310654469,0.8972286799752129,1.196006886439461,-0.2397246324461164,0.8060016607017609,845.3479853479854,660.4029304029306,755.8974358974359,822.3809523809523,765.1648351648352,0.130737,0.057616999999999995,0.9863280000000001,4.299164,3.379517,5.218811,76.0,83.0,-7.0
834.7778981581798,55.05019901247621,,,,,,,39.933639191151336,40.07600555782521,0.06594592302208377,0.047837441886350016,830.7692307692308,57.02307692307699,0.06863888888888897,76.923076923077,20.42253521126761,59.859154929577464,14.2,93.75,,,0.04725177568137708,0.01900133426152596,0.0010559696280117807,2.486760931154862,0.7020119125473114,0.2822997191858303,-3.9632460779904655,2021-10-14 16:13:29,2021-10-14 16:13:29.225,0.5297047649423082,1.2376729664179709,0.7647494155551963,0.7099267272299828,0.5887487842533194,0.9834252900024208,0.3614317128137036,0.6406682087995078,1.1482215203820578,0.8940961715032328,0.4859573278998667,0.9183938484120544,1.084528810002448,1.256860135829146,0.2180690148099772,0.9247165857723341,0.9429466416543018,1.196006886439461,-0.2308574444255049,0.5911553061171063,814.7252747252749,1228.937728937729,758.7179487179487,781.6849816849817,770.0,0.096252,0.063965,1.014038,4.344025,-3.499146,-1.061707,94.0,87.0,7.0
834.6153846153846,55.0961603918462,,,,,,,39.84947968940398,39.99139611188743,0.06601383272755765,0.047745920365184484,830.7692307692308,57.02307692307699,0.06863888888888897,76.923076923077,20.42253521126761,59.859154929577464,14.2,93.75,,,0.0465205188985957,0.017966866225663694,0.0010149401211440258,2.5892394541317536,0.7102117172834295,0.2742935637529067,-4.019225982617182,2021-10-14 16:13:30,2021-10-14 16:13:30.224,0.9330016396957358,1.2376729664179709,1.102635333121777,0.8501229325450848,0.8526605205149185,0.9834252900024208,0.6585964017009476,0.793669726947807,1.287550189355081,0.8940961715032328,0.9557369564481332,1.080676400468588,1.119246241163184,1.256860135829146,1.1057460749797452,0.9034383450550568,0.9114273429689512,1.196006886439461,1.115925054716663,0.6734299660469301,803.8461538461539,59.633699633699635,797.8021978021977,794.1758241758242,882.4175824175826,0.096985,0.074463,1.000427,3.798218,-6.489868,-1.039276,100.0,100.0,0.0
833.7278106508876,55.69435386575202,,,,,,,39.96519028733496,40.10367600588428,0.06680160257851023,0.047935536966356336,830.7692307692308,57.02307692307708,0.06863888888888907,76.923076923077,20.97902097902098,59.44055944055943,14.3,78.125,,,0.04584077899145115,0.016820588568952945,0.0009664608090967591,2.7252779415854094,0.7204517294735193,0.26435899196923823,-4.0851516328406925,2021-10-14 16:13:31,2021-10-14 16:13:31.225,1.1529962773778148,1.2376729664179709,0.7445220916737239,0.9699912785512212,0.7798728596679699,0.9834252900024208,0.1049350246976181,0.6180582534518881,1.289394185386463,0.8940961715032328,0.5028177619008445,1.106268584175662,1.1298368061031632,1.256860135829146,1.1351094195893559,0.8438566179870872,0.9794525483133524,1.196006886439461,0.7844724968961069,0.8923180560317352,860.6593406593408,1325.238095238095,800.2197802197803,832.8571428571429,774.8351648351648,0.120117,0.102112,0.9976809999999999,4.5159910000000005,-6.863708,-2.64679,98.0,93.0,5.0
833.2974717590104,56.01406059549293,,,,,,,39.78230619245822,39.915873798773156,0.06721976544252878,0.04774082190418942,830.7692307692308,57.02307692307708,0.06863888888888907,80.76923076923083,20.97902097902098,58.74125874125875,14.3,78.125,,,0.04552125984962135,0.01603825197239178,0.0009307777937670367,2.838293096278919,0.7284533345821818,0.25665190657624626,-4.132778661759762,2021-10-14 16:13:32,2021-10-14 16:13:32.231,0.9696990497180498,1.2376729664179709,0.8693418207010647,1.419032648647472,0.406896926535346,0.9834252900024208,-0.01395245318132274,0.6845431464532804,1.336669752598823,0.8940961715032328,0.3259191754522808,1.2163581996803798,0.9730604770066186,1.256860135829146,0.9251302354490324,0.7529508694577743,1.019015912932838,1.196006886439461,0.5247758241088749,0.8623186917879063,880.4029304029305,1488.827838827839,810.2930402930403,849.7802197802197,801.025641025641,0.109009,0.10833699999999999,1.002014,4.486084,-4.306641,1.069183,93.0,100.0,-7.0
832.6110509209102,56.14625704432229,,,,,,,39.91787280012114,40.05385965236614,0.06743395608576379,0.04794300142421836,830.7692307692308,57.02307692307708,0.06863888888888907,82.69230769230774,21.12676056338028,59.15492957746479,14.2,78.125,,,0.04537784659499169,0.0153696621941586,0.0008973988050519018,2.9524296644748653,0.7361167104622208,0.2493257398540434,-4.175359699932195,2021-10-14 16:13:33,2021-10-14 16:13:33.227,0.9189240841847092,1.2376729664179709,0.7633741994062666,1.331159303866704,0.2842683066398172,0.9834252900024208,0.02414455088470209,0.6515944542136363,1.174952383636372,0.8940961715032328,0.3574616633610037,1.155523880441677,0.8941597588745129,1.256860135829146,0.7345566233622733,0.8152333417748111,0.9440833127592982,1.196006886439461,0.5274042189344889,0.6045587844151252,807.4725274725273,45.12820512820514,783.2967032967032,782.4908424908424,594.3223443223443,0.102112,0.11456300000000001,0.9912110000000001,5.413208,-4.560852,-2.699127,90.0,100.0,-10.0
831.9526627218933,55.682266355533855,,,,,,,39.78230619245822,39.92076006979564,0.06692960891952505,0.04781799250729332,830.7692307692308,57.02307692307708,0.06863888888888907,80.76923076923083,20.97902097902098,58.74125874125875,14.3,78.125,,,0.044728898699300114,0.014466405227481847,0.0008453651366321735,3.091915233670392,0.7449766865865213,0.24094343805867036,-4.235926198540237,2021-10-14 16:13:34,2021-10-14 16:13:34.229,0.7734740617780942,1.2376729664179709,0.6139707402572362,0.5728787685998212,0.5454953921504683,0.9834252900024208,-0.09174009192531662,0.4093987757447339,1.160120417342657,0.8940961715032328,0.4810381880575549,0.782647893619274,1.0406908434074158,1.256860135829146,0.7564801978685891,0.7420774022789692,1.071288571697046,1.196006886439461,0.6513178953471751,0.6076617038144808,812.7106227106227,144.24908424908432,779.6703296703297,806.2637362637363,1089.92673992674,0.11834700000000001,0.108215,0.999451,5.600128,-10.198364,6.646881,80.0,100.0,-20.0
831.8450779989241,55.59459262130229,,,,,,,39.78230619245822,39.922536747345326,0.06683286839304252,0.047824176934673966,830.7692307692308,57.02307692307691,0.06863888888888886,80.76923076923083,20.97902097902098,58.74125874125875,14.3,78.125,,,0.0442306934538293,0.013839566701901928,0.0008046020385889658,3.1959594116303385,0.7512661907868778,0.2350675005611659,-4.2802236369487545,2021-10-14 16:13:35,2021-10-14 16:13:35.225,1.000008036319105,1.2376729664179709,0.6471861670672637,0.8105524568206367,0.8717819103898655,0.9834252900024208,0.06031327932298301,0.4570926487387615,1.179271483363555,0.8940961715032328,0.5149820906078686,0.9857138299949684,1.133045300084481,1.256860135829146,0.7782354485507671,0.7354356451288367,1.108125966507044,1.196006886439461,0.8241369995749902,0.7227506674968729,824.7985347985347,1466.263736263736,803.040293040293,798.2051282051282,633.0036630036631,0.19531199999999999,0.142578,0.984741,6.856232,-5.4954529999999995,-0.127106,77.0,100.0,-23.0
831.3609467455619,55.837477747693846,,,,,,,40.637268801367995,40.779342483883674,0.0671639412054111,0.04888041585360279,823.0769230769231,57.02307692307691,0.06928037383177567,84.61538461538464,21.67832167832168,59.44055944055943,14.3,78.125,,,0.04449265845764475,0.0135341100117291,0.0007778075794459744,3.2874461947690667,0.7566189818409157,0.2301540274772667,-4.302542112660061,2021-10-14 16:13:36,2021-10-14 16:13:36.234,1.1921254943957642,1.2376729664179709,0.7938897531595865,0.7730430875243877,0.4981331284193381,0.9834252900024208,0.1636142044368291,0.1516028491212413,0.6255010258263427,0.8940961715032328,0.6507807358131941,0.8343475719859226,1.038433927757716,1.256860135829146,0.7998848649838901,0.8246539369887121,1.089206354120865,1.196006886439461,0.4671505542503747,0.6664430043857379,817.948717948718,1480.769230769231,857.4358974358977,871.1355311355313,591.9047619047619,0.049194,0.098755,1.006836,3.289795,-0.9420780000000001,3.244934,78.0,100.0,-22.0
830.8768154922002,56.20870303176417,,,,,,,40.637268801367995,40.776733436218976,0.06764986335365117,0.04890889725608125,823.0769230769231,57.02307692307691,0.06928037383177567,84.61538461538464,21.67832167832168,59.44055944055943,14.3,78.125,,,0.04466799306403677,0.013232171438744231,0.0007423973928434861,3.375711482489369,0.7616992099277572,0.22564108748003944,-4.325104184410473,2021-10-14 16:13:37,2021-10-14 16:13:37.225,1.2283737218652209,1.2376729664179709,0.8728439607636738,0.7054475506762043,0.5333610601822777,0.9834252900024208,0.001431791617290496,0.3621822862225793,0.4999544414554588,0.8940961715032328,0.5027585052598763,0.7957853214777614,0.977040821923323,1.256860135829146,0.9884179370277196,0.9601073107052776,1.149538825212907,1.196006886439461,0.6073560946826646,0.5712302683109155,850.5860805860806,118.8644688644689,742.6007326007326,801.8315018315019,774.8351648351648,0.054077,0.11804200000000001,1.009583,8.747864,-13.630219,-16.067657,79.0,100.0,-21.0
829.4871794871794,57.18171039306024,,,,,,,40.57659484021439,40.71317197937249,0.06893621963923799,0.04891768775172678,823.0769230769231,57.02307692307691,0.06928037383177567,84.61538461538464,21.527777777777782,59.02777777777778,14.4,78.125,,,0.04357896494233413,0.012744076836012943,0.0006956941193019396,3.4195466257066336,0.7642920218462959,0.22350682868327856,-4.362688677201343,2021-10-14 16:13:38,2021-10-14 16:13:38.240,1.009982676797013,1.2376729664179709,0.8728439607636738,1.035580873061917,0.4462747658226879,0.9834252900024208,0.001431791617290496,0.4142997928258121,1.146846753163187,0.8940961715032328,0.5027585052598763,1.1114889133215011,1.271024747028801,1.256860135829146,0.9884179370277196,1.103122871763521,1.311439163279273,1.196006886439461,0.6073560946826646,0.9442278114101844,736.1538461538463,80.58608058608058,835.2747252747251,745.0183150183151,828.8278388278387,0.171875,0.109253,0.9850459999999999,4.575806,-2.407532,7.596436,80.0,98.0,-18.0
829.26304464766,57.75373213493287,,,,,,,40.67826479545186,40.821354155402204,0.0696446471450702,0.04905351210089842,823.0769230769231,57.02307692307691,0.06928037383177567,84.61538461538464,21.67832167832168,59.44055944055943,14.3,179.6875,,,0.042958043315743835,0.012502817035306613,0.0006601281927796699,3.435869148083583,0.765454145238263,0.2227832645097118,-4.381801297239741,2021-10-14 16:13:39,2021-10-14 16:13:39.224,0.7859745762455855,1.2376729664179709,1.556992300900991,0.9045870419121028,0.3962200873347186,0.9834252900024208,0.3172315551013046,0.656014360593389,1.124813502355956,0.8940961715032328,0.2767034967561112,1.211026673664384,1.129243726264819,1.256860135829146,1.0908312972724858,1.02919688938704,1.3099574094895219,1.196006886439461,1.0048703361884541,0.7123446681277116,845.7509157509156,1179.7802197802198,761.1355311355313,890.4761904761905,967.0329670329672,0.085388,0.078003,1.0108030000000001,4.568329,1.540222,2.886047,78.0,98.0,-20.0
828.9529914529917,57.68593194901603,,,,,,,40.658094485151274,40.80096991709798,0.06958890617899084,0.04904752730777365,823.0769230769231,57.02307692307691,0.06928037383177567,84.61538461538464,21.527777777777782,60.41666666666666,14.4,179.6875,,,0.0433314794188799,0.012684101366436093,0.0006386183969091304,3.4162041257050384,0.7648414423705218,0.22388634116313916,-4.367405930660573,2021-10-14 16:13:40,2021-10-14 16:13:40.225,0.6659889631196005,1.2376729664179709,1.6383258240828449,1.169821278684101,0.3471465720183711,0.9834252900024208,0.3313401183588572,0.8945897594403897,1.122718948699164,0.8940961715032328,0.2530242873359591,1.119149547179128,1.0818629031817641,1.256860135829146,1.148645780619626,1.006328656701497,1.298728038481929,1.196006886439461,1.088541056952253,0.6122918493529609,841.3186813186812,1163.663003663004,773.6263736263736,821.5750915750915,754.2857142857142,0.023804,0.11138900000000004,1.0162959999999999,8.830109,-8.015137,-20.531311,75.0,91.0,-16.0
829.059829059829,57.61744789574442,,,,,,,40.64282575037543,40.785111647075155,0.06949733405981544,0.04902278982261779,823.0769230769231,57.02307692307691,0.06928037383177567,84.61538461538464,21.527777777777782,60.41666666666666,14.4,179.6875,,,0.04406346639240388,0.013074318169908068,0.0006324282570135179,3.370230540497372,0.7627367849623644,0.2263159080060444,-4.337105418007859,2021-10-14 16:13:41,2021-10-14 16:13:41.226,0.735526084660978,1.2376729664179709,1.6383258240828449,0.004381519333120874,0.6724457243161475,0.9834252900024208,0.3313401183588572,0.0777887916739347,1.5439336178502399,0.8940961715032328,0.2530242873359591,0.8202763895453142,1.3341804063024971,1.256860135829146,1.148645780619626,1.1859388748251158,1.1878319850505001,1.196006886439461,1.088541056952253,0.9445288125594242,836.0805860805863,741.3919413919414,746.2271062271063,807.8754578754579,549.1941391941392,0.065613,0.12738,1.009827,4.358978,-15.260162,-20.598602,70.0,83.0,-13.0
829.1666666666665,57.51991456751463,,,,,,,40.66318278934303,40.80596899450468,0.06937075123720357,0.049041024469559436,823.0769230769231,57.02307692307691,0.06928037383177567,84.61538461538464,21.527777777777782,60.41666666666666,14.4,179.6875,,,0.04542427302364197,0.013759510452022923,0.0006402935998607886,3.3013000849142635,0.7592975143819688,0.2299995440740699,-4.286025024724451,2021-10-14 16:13:42,2021-10-14 16:13:42.225,0.8139129545980512,1.2376729664179709,1.38889111367084,0.7700976320723203,0.7637207256230445,0.9834252900024208,0.8243391157703186,0.4905743584116816,1.5439336178502399,0.8940961715032328,0.7762498825420944,1.1757036804331709,1.2847323447730978,1.256860135829146,1.245259970300906,1.137468320323177,1.160486832699881,1.196006886439461,1.277221443266055,0.9540810292240096,736.959706959707,769.1941391941392,836.4835164835165,774.4322344322345,530.2564102564103,0.073486,0.11334200000000001,0.999878,6.332855,-5.9515379999999976,5.607605,63.0,68.0,-5.0
829.1554599246907,57.894935941568,,,,,,,40.76013308414755,40.90351406191906,0.06982398203929863,0.04915861385975756,823.0769230769231,57.02307692307691,0.06928037383177567,84.61538461538464,21.67832167832168,60.13986013986013,14.3,179.6875,,,0.04659121145386892,0.014605256361308409,0.0006513353515104652,3.1900303768235303,0.7533203940696099,0.2361483450260207,-4.226373790314053,2021-10-14 16:13:43,2021-10-14 16:13:43.225,0.8139129545980512,1.2376729664179709,1.039833997702363,0.9560516344037536,0.7637207256230445,0.9834252900024208,0.5340706435851724,0.5999762584213663,1.5439336178502399,0.8940961715032328,0.8014773293696091,1.1852151804779818,1.2847323447730978,1.256860135829146,1.451010084679949,1.05238345371105,1.160486832699881,1.196006886439461,1.442388575868044,0.9807153518680763,845.3479853479854,829.2307692307692,774.0293040293042,804.6520146520148,728.901098901099,0.140259,0.132751,0.9882200000000001,4.762726,-6.7590330000000005,6.04126,51.0,71.0,-20.0
828.7393162393163,57.92930422296604,,,,,,,40.67335748806085,40.816179492500794,0.06990051405530001,0.04907859044582308,823.0769230769231,57.02307692307691,0.06928037383177567,84.61538461538464,21.527777777777782,59.72222222222222,14.4,179.6875,,,0.046700888477208435,0.015125381135579397,0.0006561940776973091,3.0875842439007415,0.7474239285529337,0.2420740195281816,-4.191381076336151,2021-10-14 16:13:44,2021-10-14 16:13:44.228,0.6949657628307604,1.2376729664179709,0.0999334376714195,0.6353808225802096,0.2594093883173179,0.9834252900024208,0.06111635537233511,0.28557716803022,1.4514567980191269,0.8940961715032328,0.7102427829643878,0.7385094069783941,1.3267868208066549,1.256860135829146,1.470963385701828,0.953931691740022,0.9967753704326746,1.196006886439461,1.2905136880271861,0.9257327664522772,770.4029304029305,624.1391941391943,773.6263736263736,784.5054945054945,785.7142857142858,0.10656700000000001,0.119751,1.001465,4.486084,5.390778,13.353577,43.0,55.00000000000001,-12.000000000000007
828.792735042735,57.91330473255296,,,,,,,40.392619407134525,40.532836096273776,0.0698767041310597,0.04873669579771565,823.0769230769231,57.02307692307691,0.06928037383177567,84.61538461538464,20.833333333333336,59.72222222222222,14.4,125.0,,,0.04797089593698599,0.016100074669665,0.0006848155178308852,2.979544935115766,0.7407970593511164,0.24862758423958245,-4.128931369135083,2021-10-14 16:13:45,2021-10-14 16:13:45.225,0.8471389146653674,1.2376729664179709,0.3049117899539111,0.8769140397880919,0.4343613334257285,0.9834252900024208,0.03572289881463322,0.64118115722834,1.402679391146268,0.8940961715032328,0.7354986434452578,0.9433178240872472,1.305098168957061,1.256860135829146,1.295802475240021,1.03427897344087,0.8928403794304491,1.196006886439461,0.9328100321517252,0.7790039502602255,742.6007326007326,134.5787545787546,783.2967032967032,766.7765567765567,644.6886446886447,-0.17193599999999998,0.069885,0.9972530000000001,0.807495,6.04126,25.981903,36.0,54.0,-18.0
828.0258203335127,58.02831437419513,,,,,,,40.15761927951967,40.299770588741886,0.07008031989971332,0.04849802783123957,823.0769230769231,57.02307692307691,0.06928037383177567,80.76923076923083,20.27972027972028,60.13986013986013,14.3,125.0,,,0.044774318231022486,0.015739088870141058,0.0006599420500401428,2.8447846378175514,0.7319252395410408,0.25728669573474483,-4.151607923936393,2021-10-14 16:13:46,2021-10-14 16:13:46.233,1.043936486247198,1.2376729664179709,0.4970653377523422,1.034055494596138,0.5370757587221178,0.9834252900024208,-0.0417713315411117,0.8182160521407776,1.3264841293015421,0.8940961715032328,0.592440118137728,0.9294595468452592,1.2691987586095679,1.256860135829146,1.106645862174655,1.051468008950081,0.9479893616691706,1.196006886439461,0.7651364921582818,0.6251194962927845,834.8717948717949,643.4798534798535,801.025641025641,794.1758241758242,1130.2197802197802,-0.34265100000000004,0.054138,0.9549559999999999,-3.693542,7.289886,17.727509,35.0,45.0,-10.0
827.190170940171,58.51865216752397,,,,,,,40.290047836269714,40.428746286619436,0.0707438920617403,0.04870711627348847,823.0769230769231,57.02307692307691,0.06928037383177567,78.84615384615391,20.833333333333336,60.41666666666666,14.4,125.0,,,0.04352929550049761,0.01587132660737044,0.0006633130902403977,2.742637498259482,0.7247160106464096,0.264240538936088,-4.143241155790602,2021-10-14 16:13:47,2021-10-14 16:13:47.226,1.043936486247198,1.2376729664179709,0.4970653377523422,1.034055494596138,0.5370757587221178,0.9834252900024208,-0.0417713315411117,0.8182160521407776,1.3264841293015421,0.8940961715032328,0.592440118137728,0.9294595468452592,1.2691987586095679,1.256860135829146,1.106645862174655,1.051468008950081,0.9479893616691706,1.196006886439461,0.7651364921582818,0.6251194962927845,864.2857142857142,152.7106227106227,792.5641025641023,831.6483516483516,759.1208791208792,-0.449463,0.041138,0.898438,-5.981445,-1.039276,23.985595999999997,36.0,39.0,-3.0
827.1367521367523,58.511801702082614,,,,,,,40.59698509016472,40.73935956183613,0.07074017875632825,0.04908134596279279,823.0769230769231,57.02307692307691,0.06928037383177567,78.84615384615391,21.527777777777782,61.111111111111114,14.4,125.0,,,0.04251917418926052,0.016058346976154988,0.0006732508974550643,2.6477927181668925,0.7176138421309299,0.2710234215870739,-4.131526503771247,2021-10-14 16:13:48,2021-10-14 16:13:48.225,1.043936486247198,1.2376729664179709,0.4970653377523422,1.034055494596138,0.5370757587221178,0.9834252900024208,-0.0417713315411117,0.8182160521407776,1.3264841293015421,0.8940961715032328,0.592440118137728,0.9294595468452592,1.2691987586095679,1.256860135829146,1.106645862174655,1.051468008950081,0.9479893616691706,1.196006886439461,0.7651364921582818,0.6251194962927845,817.1428571428571,0.0,775.2380952380953,832.4542124542122,659.5970695970698,-0.454956,0.044128,0.890991,8.411407,-2.34024,-2.048645,41.0,46.0,-5.0
827.2970085470085,58.61697479422371,,,,,,,40.36700094866401,40.50370928017014,0.07085360419370232,0.04879384372434882,823.0769230769231,57.02307692307691,0.06928037383177567,84.61538461538464,20.833333333333336,61.111111111111114,14.4,125.0,,,0.04129766977045135,0.016246178622760468,0.0006879296466293941,2.541992842094841,0.7091947242654376,0.2789916291349563,-4.119897559537511,2021-10-14 16:13:49,2021-10-14 16:13:49.230,1.043936486247198,1.2376729664179709,0.4970653377523422,1.034055494596138,0.5370757587221178,0.9834252900024208,-0.0417713315411117,0.8182160521407776,1.3264841293015421,0.8940961715032328,0.592440118137728,0.9294595468452592,1.2691987586095679,1.256860135829146,1.106645862174655,1.051468008950081,0.9479893616691706,1.196006886439461,0.7651364921582818,0.6251194962927845,701.9047619047618,0.0,843.7362637362637,774.0293040293042,612.8571428571429,-0.198364,0.054321,0.996765,-2.594452,-52.292786,-10.639496000000001,44.0,48.0,-4.0
828.2585470085471,59.04601422909965,,,,,,,40.50514813307576,40.63171109237086,0.07128935094284072,0.0489039905224881,823.0769230769231,57.02307692307691,0.06928037383177567,84.61538461538464,20.833333333333336,61.111111111111114,14.4,125.0,,,0.041669179003341134,0.016879515045486033,0.0007231494013026121,2.4686241809111937,0.7030181040075258,0.2847813407337017,-4.081654519759845,2021-10-14 16:13:50,2021-10-14 16:13:50.225,1.043936486247198,1.2376729664179709,1.1110515967242458,1.034055494596138,0.5370757587221178,0.9834252900024208,0.6858022747292003,0.8182160521407776,1.3264841293015421,0.8940961715032328,1.078196367028579,0.9294595468452592,1.2691987586095679,1.256860135829146,1.4480685941451767,1.051468008950081,0.9479893616691706,1.196006886439461,0.9873589934036628,0.6251194962927845,854.2124542124542,864.6886446886447,787.7289377289377,772.4175824175826,727.6923076923077,0.181335,0.014648,1.009399,5.5403139999999995,-11.230164,4.067383,41.0,44.0,-3.0
829.6395911780528,59.19113391513588,,,,,,,40.56542611818197,40.69301033778296,0.07134559939586176,0.048895239028529006,823.0769230769231,57.02307692307691,0.06928037383177567,84.61538461538464,20.97902097902098,60.839160839160854,14.3,125.0,,,0.042263965348303824,0.017571842028264076,0.0007629054122236505,2.405209725896852,0.6974399851628704,0.28997054920140475,-4.041457542878051,2021-10-14 16:13:51,2021-10-14 16:13:51.225,1.043936486247198,1.2376729664179709,0.9151484057150144,1.034055494596138,0.5370757587221178,0.9834252900024208,0.4387972028713318,0.8182160521407776,1.3264841293015421,0.8940961715032328,1.095652558784833,0.9294595468452592,1.2691987586095679,1.256860135829146,1.3782039475655379,1.051468008950081,0.9479893616691706,1.196006886439461,1.021116144478605,0.6251194962927845,855.0183150183151,757.9120879120877,806.2637362637363,747.8388278388278,1154.3956043956039,0.207947,-0.054688,0.9918819999999999,0.284119,5.50293,33.967133000000004,41.0,41.0,0.0
830.3388918773534,58.787199692768965,,,,,,,40.76524439310039,40.89784194743669,0.07079904394199114,0.049094706741884965,823.0769230769231,57.02307692307691,0.06928037383177567,84.61538461538464,21.67832167832168,60.839160839160854,13.0,148.4375,,,0.04294068782515622,0.018346329488151444,0.0008095919971484719,2.3405601568907,0.6915142115163067,0.2954481684567952,-3.998325752383459,2021-10-14 16:13:52,2021-10-14 16:13:52.225,1.2838720389390772,1.2376729664179709,0.4060600319346861,1.034055494596138,0.7616293084879795,0.9834252900024208,0.2265026676510028,0.8182160521407776,1.391134670785107,0.8940961715032328,0.6123871104078624,0.9294595468452592,1.1263950166262229,1.256860135829146,1.171057380427643,1.051468008950081,0.5408230069440334,1.196006886439461,1.18706116395621,0.6251194962927845,742.6007326007326,1225.714285714286,790.952380952381,785.3113553113553,700.2930402930403,0.040588,-0.112732,1.018738,5.360869999999999,4.351501,2.945862,41.0,38.0,3.0
831.25,57.687600668658504,,,,,,,40.64791596590674,40.78475440782889,0.06939861734575459,0.04889974853041412,826.9230769230769,62.72538461538455,0.07585395348837201,78.84615384615391,21.527777777777782,61.111111111111114,12.0,140.625,,,0.043451728792613935,0.018886554548419542,0.0008423043466586747,2.3006699650387015,0.6877385979282133,0.2989297067285547,-3.9693050096358,2021-10-14 16:13:53,2021-10-14 16:13:53.225,1.301631259977154,1.2376729664179709,0.7837168105642123,1.034055494596138,0.8844509398775883,0.9834252900024208,0.1632688175731589,0.8182160521407776,0.6952747948905151,0.8940961715032328,0.7257567071883659,0.9294595468452592,1.011589942764304,1.256860135829146,1.332916280216802,1.051468008950081,0.6653272908938709,1.196006886439461,1.189909277100753,0.6251194962927845,877.1794871794873,992.8205128205127,743.809523809524,867.5091575091576,696.2637362637363,-0.13037100000000001,-0.094788,1.003906,8.538513,-3.4841919999999997,7.4842830000000005,47.0,47.0,0.0
832.1678321678322,57.045024447929066,,,,,,,40.06932071471322,40.209358787844614,0.06854990332818367,0.048150528253815036,830.7692307692308,57.02307692307708,0.06863888888888907,76.923076923077,20.27972027972028,60.839160839160854,11.916666666666664,140.625,,,0.043664292663821706,0.019279271026006455,0.0008680580009786643,2.2648311030495645,0.6842686568191748,0.30212789637947673,-3.9487248003689848,2021-10-14 16:13:54,2021-10-14 16:13:54.225,1.203166370014345,1.2376729664179709,1.141006717534862,1.034055494596138,0.7843690338242548,0.9834252900024208,0.4768836423082441,0.8182160521407776,0.9862419637361302,0.8940961715032328,0.6345405448866265,0.9294595468452592,1.123848762643759,1.256860135829146,1.381214717008143,1.051468008950081,1.073973820992045,1.196006886439461,0.9910333737079924,0.6251194962927845,739.3772893772892,284.4688644688645,826.4102564102565,796.9963369963368,684.981684981685,-0.072693,-0.043945,1.020325,6.923522999999999,-10.646973,-5.547791,52.0,55.00000000000001,-3.0000000000000067
831.5761161915007,57.25703103457817,,,,,,,40.14724129271257,40.284074132152746,0.06885362616810974,0.048278492504788585,823.0769230769231,57.02307692307691,0.06928037383177567,76.923076923077,20.27972027972028,61.53846153846154,11.916666666666664,140.625,,,0.04144517511247325,0.018441150127867064,0.0008332508610327554,2.2474289740662106,0.6825669376096986,0.3037101263203656,-3.993170691439317,2021-10-14 16:13:55,2021-10-14 16:13:55.235,0.9031837542979888,1.2376729664179709,1.141006717534862,0.7232006832814677,0.6451405977088612,0.9834252900024208,0.4768836423082441,0.1407804818027172,0.9815766616975448,0.8940961715032328,0.6345405448866265,1.2738651966853378,1.131513789995451,1.256860135829146,1.381214717008143,1.2674129268158891,1.075629894220226,1.196006886439461,0.9910333737079924,0.9856405530569152,782.0879120879123,702.3076923076924,728.901098901099,790.1465201465203,632.1978021978023,0.038025,0.096558,1.014526,10.415192,-4.0898129999999995,-44.120636,51.0,50.0,1.0
831.0919849381387,57.29457793383963,,,,,,,40.00687498214718,40.14021070662828,0.06893891286667178,0.04813772206589748,823.0769230769231,57.02307692307691,0.06928037383177567,76.923076923077,20.27972027972028,61.53846153846154,11.916666666666664,140.625,,,0.03972308171217076,0.017734780309884332,0.0008003986118402629,2.2398406418393257,0.6818446222038321,0.3044165774418268,-4.032227578209406,2021-10-14 16:13:56,2021-10-14 16:13:56.235,1.0001928130525892,1.2376729664179709,1.141006717534862,1.043527592025022,0.8096041240511593,0.9834252900024208,0.4768836423082441,0.5112470672345685,1.123738976024122,0.8940961715032328,0.6345405448866265,1.604925854555647,1.215341659694215,1.256860135829146,1.381214717008143,1.2025411940806399,1.050741944395356,1.196006886439461,0.9910333737079924,1.005987865033805,851.7948717948718,450.4761904761905,771.2087912087912,832.8571428571429,1169.304029304029,-0.025879000000000003,0.080933,1.007507,2.265472,-5.188904,-1.77948,47.0,47.0,0.0
830.3388918773534,56.98757892581657,,,,,,,39.96519028733496,40.09601128228135,0.06863171108000325,0.04813117954402416,823.0769230769231,57.02307692307691,0.06928037383177567,76.923076923077,20.27972027972028,60.839160839160854,11.916666666666664,140.625,,,0.0374219378869486,0.01667489821073757,0.000746090657280899,2.244207875455052,0.6823475715318079,0.3040482920475672,-4.093850791502676,2021-10-14 16:13:57,2021-10-14 16:13:57.225,0.6485807808485573,1.2376729664179709,0.5874546958521684,0.6303406215630879,0.5330208447779228,0.9834252900024208,0.4478554854877969,0.4508815296391974,1.343615651540685,0.8940961715032328,0.8198105763812373,1.3824215814919512,1.255936580897232,1.256860135829146,1.288522265331975,1.110113739128479,0.9035697371258108,1.196006886439461,1.2462805968847241,0.8310822539852976,791.3553113553114,624.9450549450548,790.1465201465203,780.4761904761905,780.0732600732601,0.027161,0.056335,1.0067139999999999,2.751465,-7.805786,-0.336456,46.0,38.0,8.0
829.7542735042737,56.23492954277538,,,,,,,39.70032986639793,39.83983794274724,0.06777299176210358,0.04784588779366312,823.0769230769231,57.02307692307691,0.06928037383177567,76.923076923077,19.44444444444445,60.41666666666666,12.0,140.625,,,0.035505692440284765,0.015720566014196604,0.0006947106608412918,2.2585505132716603,0.6838410962904484,0.30277874781727115,-4.152785486637127,2021-10-14 16:13:58,2021-10-14 16:13:58.225,0.5641307791873923,1.2376729664179709,0.7830969822916424,0.453099614201978,0.2027471011412804,0.9834252900024208,0.2960996512848367,0.4270271084226512,1.7037801870824043,0.8940961715032328,0.6584875480441352,1.159991440812565,1.295494850403893,1.256860135829146,1.2975371771556852,1.009410554923905,0.7787180222271565,1.196006886439461,1.207203587799192,0.7115241496143686,843.3333333333335,56.81318681318682,807.4725274725273,798.2051282051282,1048.021978021978,0.101868,0.0625,1.002686,2.1009830000000003,-9.405823,-1.308441,43.0,31.0,12.0
829.9679487179487,56.444044806040345,,,,,,,39.82520670386621,39.964862175931145,0.06800749943805594,0.047984029703055625,823.0769230769231,57.02307692307691,0.06928037383177567,76.923076923077,19.44444444444445,61.111111111111114,12.0,140.625,,,0.03503417379800732,0.015352578060258072,0.0006666914770155106,2.281973337670065,0.6862254827344166,0.3007158196839692,-4.176471867242913,2021-10-14 16:13:59,2021-10-14 16:13:59.225,0.6879810003934456,1.2376729664179709,0.4866818481939845,0.6334162006893674,0.3157759185951665,0.9834252900024208,-0.1032942514564701,0.2646293528644543,1.5358237991085388,0.8940961715032328,0.7943593747751854,1.168308176765882,0.9546521273580172,1.256860135829146,1.2580700547727242,0.9147213736036468,0.8051341675665359,1.196006886439461,1.058476483873665,0.6254036558259087,763.956043956044,1089.120879120879,812.3076923076924,761.5384615384613,590.2930402930402,0.115173,0.059142999999999994,1.002808,4.351501,-5.046844,0.381317,38.0,35.0,3.0
