HRV_MeanNN,HRV_SDNN,HRV_SDANN1,HRV_SDNNI1,HRV_SDANN2,HRV_SDNNI2,HRV_SDANN5,HRV_SDNNI5,HRV_RMSSD,HRV_SDSD,HRV_CVNN,HRV_CVSD,HRV_MedianNN,HRV_MadNN,HRV_MCVNN,HRV_IQRNN,HRV_pNN50,HRV_pNN20,HRV_HTI,HRV_TINN,HRV_ULF,HRV_VLF,HRV_LF,HRV_HF,HRV_VHF,HRV_LFHF,HRV_LFn,HRV_HFn,HRV_LnHF,Time,TimeStamp,Delta_TP9,Delta_AF7,Delta_AF8,Delta_TP10,Theta_TP9,Theta_AF7,Theta_AF8,Theta_TP10,Alpha_TP9,Alpha_AF7,Alpha_AF8,Alpha_TP10,Beta_TP9,Beta_AF7,Beta_AF8,Beta_TP10,Gamma_TP9,Gamma_AF7,Gamma_AF8,Gamma_TP10,RAW_TP9,RAW_AF7,RAW_AF8,RAW_TP10,AUX_RIGHT,Accelerometer_X,Accelerometer_Y,Accelerometer_Z,Gyro_X,Gyro_Y,Gyro_Z,Attention,Meditation,A_M
882.3931623931626,48.92076140158859,,,,,,,27.0090475844201,27.104271142106143,0.05544100236328811,0.03060885865340131,892.3076923076924,45.61846153846145,0.05112413793103439,53.84615384615381,8.148148148148149,46.66666666666666,11.25,140.625,,,0.012143742511149415,0.004184955883323349,0.0003244966664776378,2.9017611773498198,0.7292139716555011,0.25130047825696417,-5.476259116715534,2021-09-22 20:15:00,2021-09-22 20:15:00.001,0.07612427,-0.24832699,0.17775233,0.31209967,0.04277151,-0.35359317,-0.10509782,-0.09897032,0.6588725000000001,0.007361911,0.22452356,0.36517859999999996,0.49514067,0.16780423,0.70797586,0.6147459,0.77310807,-0.014016788999999998,0.5196153,0.37665564,813.1135,1147.1428,1334.9084,921.50183,699.0842,-0.00372314453125,0.0775146484375,1.00048828125,0.9271240234375,6.302947998046875,12.209625244140625,82.0,76.0,6.0
883.0769230769231,48.8388533376545,,,,,,,27.03356041437961,27.12759644388115,0.05530532172382477,0.030612916845551823,892.3076923076924,45.61846153846145,0.05112413793103439,53.84615384615381,8.148148148148149,46.66666666666666,11.25,140.625,,,0.011932458708537938,0.004366501717501952,0.00033240913915334844,2.7327273594580017,0.7174669928272558,0.2625461300938398,-5.433793112774493,2021-09-22 20:15:01,2021-09-22 20:15:01.001,0.11821051,-0.2520642,-0.07586662,0.14823854,0.18948389999999998,-0.46207708,-0.18777217,0.047133237,0.6276866,-0.21172012,0.18862376,0.34623688,0.47218528,-0.00938281,0.69552505,0.37643709999999997,0.86754626,-0.2529475,0.41536614,0.41882703,724.87177,801.02563,886.04395,844.1392,864.2857,-0.22283935546875,0.14227294921875,0.9749755859375,2.579498291015625,16.76300048828125,-25.11459350585937,72.0,87.0,-15.0
883.4672789896671,48.8740279483731,,,,,,,26.83825355523517,26.939158790236267,0.05532069960108248,0.030378322087862033,892.3076923076924,45.61846153846145,0.05112413793103439,53.84615384615381,8.208955223880597,46.2686567164179,10.307692307692307,140.625,,,0.01175833188571079,0.004686109567250857,0.00034926095947989424,2.509188425273827,0.7001631681290054,0.2790396931041944,-5.3631525573408485,2021-09-22 20:15:02,2021-09-22 20:15:02.000,0.11821051,-0.2520642,-0.07586662,0.14823854,0.18948389999999998,-0.46207708,-0.18777217,0.047133237,0.6276866,-0.21172012,0.18862376,0.34623688,0.47218528,-0.00938281,0.69552505,0.37643709999999997,0.86754626,-0.2529475,0.41536614,0.41882703,807.47253,818.7546,832.0513,803.8461,1052.4542,-0.54937744140625,0.044921875,0.85955810546875,-1.547698974609375,-5.510406494140625,2.624359130859375,48.0,62.0,-14.0
883.0769230769231,48.64861019279706,,,,,,,26.812138171617764,26.908798891503487,0.0550898895911465,0.030362177372041024,892.3076923076924,45.61846153846145,0.05112413793103439,53.84615384615381,8.148148148148149,46.66666666666666,10.384615384615383,140.625,,,0.011877315486614273,0.005104997266932272,0.00037491052263957897,2.3266056504182346,0.6842866106878851,0.2941137061903363,-5.277535362736411,2021-09-22 20:15:03,2021-09-22 20:15:03.003,0.11821051,-0.2520642,-0.07586662,0.14823854,0.18948389999999998,-0.46207708,-0.18777217,0.047133237,0.6276866,-0.21172012,0.18862376,0.34623688,0.47218528,-0.00938281,0.69552505,0.37643709999999997,0.86754626,-0.2529475,0.41536614,0.41882703,804.2491,809.0842,778.46155,795.38464,1073.8096,-0.0743408203125,0.01141357421875,0.9976806640625,-2.145843505859375,-31.484832763671875,23.768768310546875,27.0,43.0,-16.0
882.8490028490027,48.42243917529913,,,,,,,26.91077297989963,27.01150601425001,0.05484792871605137,0.030481739111736062,892.3076923076924,45.61846153846145,0.05112413793103439,53.84615384615381,8.148148148148149,47.407407407407405,10.384615384615383,140.625,,,0.012113887021637302,0.0056455345005041345,0.00040941581604459534,2.1457466995473253,0.6667398026717513,0.310726239407666,-5.176890400211164,2021-09-22 20:15:04,2021-09-22 20:15:04.001,0.5167563000000001,-0.2520642,-0.07586662,1.2282188,0.7652649,-0.46207708,-0.18777217,0.9139946,0.6999466,-0.21172012,0.18862376,0.89803576,1.1559591999999999,-0.00938281,0.69552505,0.9898087999999999,1.2875609,-0.2529475,0.41536614,1.0172732,758.71796,788.9377400000003,792.96704,784.1025400000003,728.0952,0.0142822265625,0.05609130859375,1.01654052734375,2.549591064453125,-3.9776611328125,2.968292236328125,10.0,21.0,-11.0
882.7350427350427,48.32682848641974,,,,,,,26.70487268655918,26.804521552943392,0.05474669764631206,0.0302524216143244,892.3076923076924,45.61846153846145,0.05112413793103439,53.84615384615381,8.148148148148149,46.66666666666666,10.384615384615383,140.625,,,0.012127716188037296,0.006282568556213638,0.00045026961834510764,1.9303754633990649,0.6430201337076705,0.3331062510375162,-5.0699763763555845,2021-09-22 20:15:05,2021-09-22 20:15:05.029,0.53111744,0.06536212,0.5283310999999999,0.9702269,0.75407726,0.395932,0.18251404,0.71091926,0.7285983,0.2513264,0.19681466,1.0039749,1.1196540000000001,0.62655574,0.78833807,0.9645971999999999,1.2409866000000005,0.41267806,0.5022479000000001,0.89641935,788.5348,817.1429,780.87915,820.3663,723.663,0.0322265625,0.068115234375,1.02197265625,2.46734619140625,-3.21502685546875,-0.441131591796875,10.0,23.0,-13.0
882.9629629629628,48.44472568584362,,,,,,,26.41391597561461,26.506768372652594,0.054866090332121545,0.029915089401912526,892.3076923076924,45.61846153846145,0.05112413793103439,53.84615384615381,8.148148148148149,45.925925925925924,10.384615384615383,187.5,,,0.012226524225462023,0.0068958468389326115,0.0004910937898320449,1.7730272308882276,0.623374009453879,0.35158738602203493,-4.9768359559989745,2021-09-22 20:15:06,2021-09-22 20:15:06.012,-0.11338733,0.007423901,0.4838843,0.5407177,0.39750478,0.22358613,0.35506353,0.435954,0.7638596,0.29772717,0.2879629,0.83978105,1.1403379999999999,0.47314274,0.8246806000000001,0.91112685,1.1537908000000001,0.3733244,0.5398586,0.6271036,802.6374,802.2344400000003,808.2784,828.0219999999997,729.707,0.0093994140625,0.09405517578125,1.02374267578125,5.435638427734375,5.106658935546875,-9.413299560546877,24.0,33.0,-9.0
883.1908831908831,48.34252863920124,,,,,,,26.63864847380248,26.73854414487991,0.054736217910837534,0.030161824562273124,892.3076923076924,45.61846153846145,0.05112413793103439,53.84615384615381,8.148148148148149,45.925925925925924,10.384615384615383,187.5,,,0.01245868107009431,0.007621994058430884,0.0005405603153425257,1.6345697693523442,0.6041675390404038,0.3696186913329429,-4.876717256059651,2021-09-22 20:15:07,2021-09-22 20:15:07.000,0.25525293,0.20005237,0.30105117,0.46566337,0.09400460000000001,-0.30265787,0.4417782,0.303611,0.61804205,0.27808028,0.14046785,0.7147034000000001,1.2256023,0.5636833000000001,0.7960048000000001,0.8428478000000001,1.2917696,0.32430208,0.55580455,0.52406687,808.2784,806.6667,794.57874,790.14655,794.57874,-0.0362548828125,0.088623046875,1.0203857421875,1.3458251953125,-3.87298583984375,0.456085205078125,45.0,37.0,8.0
883.3048433048433,48.327505322329685,,,,,,,26.613771909490318,26.71363632005625,0.054712148007153,0.030129770159434587,892.3076923076924,45.61846153846145,0.05112413793103439,53.84615384615381,8.148148148148149,45.925925925925924,10.384615384615383,187.5,,,0.013052738837252574,0.00874694314532024,0.0006189861967359192,1.4922629106416458,0.5822263273114312,0.39016337078369423,-4.73905099447177,2021-09-22 20:15:08,2021-09-22 20:15:08.001,0.7153794,0.17275426,0.5052852,0.90365916,0.61707973,0.03796613,-0.035637632,0.81242144,0.7917354,0.22189736,0.53243816,0.9427110000000001,1.2743081,0.34873217,0.6742376999999999,0.8291594999999999,1.2097182,-0.054824202999999995,0.6933394,0.63474923,845.7509,779.67035,768.3883,824.3956,773.22345,-0.03082275390625,0.09490966796875,1.017578125,2.145843505859375,-2.76641845703125,-0.52337646484375,67.0,51.0,16.0
883.2376578645236,48.4658140380627,,,,,,,26.63858615556218,26.739236481589128,0.054872902674057734,0.03016015668984097,892.3076923076924,45.61846153846145,0.05112413793103439,53.84615384615381,8.208955223880597,46.2686567164179,9.571428571428571,187.5,,,0.013822782238618813,0.009841838429809246,0.0006967367374219998,1.4044918880960258,0.5674060771055168,0.4039938442611518,-4.621112753071269,2021-09-22 20:15:09,2021-09-22 20:15:09.012,0.8848944999999999,0.50753725,1.0983827,0.9158181999999999,0.82428366,0.11433455,0.52442485,0.8435073000000001,0.7174271,0.39864224,0.63660777,0.9115242,1.4007015,0.28463084,0.73101586,0.98799413,1.0654976,-0.090300314,0.5908333,0.67734355,803.0403,784.1025400000003,784.5055,784.90845,720.0366,-0.0296630859375,0.1060791015625,1.0260009765625,3.058013916015625,-2.37762451171875,-0.052337646484375,84.0,56.00000000000001,27.999999999999996
883.1802525832378,48.42280816172449,,,,,,,26.60516257131333,26.705181619162875,0.05482777498714595,0.030124272472686262,892.3076923076924,45.61846153846145,0.05112413793103439,53.84615384615381,8.208955223880597,46.2686567164179,8.933333333333334,187.5,,,0.014901278267912413,0.0111188270137504,0.0007884913205479472,1.3401843782158258,0.5558395498660151,0.4147485666158851,-4.499115480098532,2021-09-22 20:15:10,2021-09-22 20:15:10.001,0.20522828,0.72140825,0.8972117000000001,0.014838978000000001,-0.08265016,0.10876315,0.30639607,0.07487664,0.2185821,0.31799668,0.6045904000000001,0.52154726,0.7666916,0.22006488,0.8497565999999999,1.0844915000000002,1.1732174,0.050475143,0.5503208,0.5667456,765.9707,1058.4982,1620.989,1064.5421,767.98535,-0.132568359375,0.10064697265625,0.99713134765625,2.61688232421875,28.57635498046875,7.155303955078125,92.0,61.0,31.0
882.7350427350427,48.116210507087594,,,,,,,26.88614820154149,26.98205159762005,0.054508100593815334,0.030457778268593663,892.3076923076924,45.61846153846145,0.05112413793103439,53.84615384615381,8.888888888888891,46.66666666666666,9.0,179.6875,,,0.01659501716136589,0.01284363468630291,0.000913534378742584,1.2920810632416728,0.5467486604614169,0.4231535280686581,-4.354906945521327,2021-09-22 20:15:11,2021-09-22 20:15:11.011,0.19567412,0.12392398,0.26988637,-0.092900105,-0.041202348,-0.5060019,-0.34475657,0.0750339,0.17420125,-0.35540682,0.26725176,0.44434646,0.77283895,0.16417833,0.8075081999999999,1.0761733,1.1758701999999999,0.19048375,0.5840883000000001,0.533726,777.25275,792.1612,904.9817,747.4359,688.60803,-0.1749267578125,0.1634521484375,0.99261474609375,2.938385009765625,-8.8824462890625,3.30474853515625,59.0,63.0,-4.0
882.1082621082621,48.13789134992401,,,,,,,26.713139169557532,26.811147514378494,0.054571409675806884,0.03028328870394255,892.3076923076924,45.61846153846145,0.05112413793103439,53.84615384615381,8.888888888888891,45.925925925925924,9.0,179.6875,,,0.01807285571319849,0.014136121960612938,0.0010079144250131336,1.2784875345271045,0.5440862937877933,0.4255702766699588,-4.259021916341169,2021-09-22 20:15:12,2021-09-22 20:15:12.000,0.19567412,0.12392398,0.26988637,-0.092900105,-0.041202348,-0.5060019,-0.34475657,0.0750339,0.17420125,-0.35540682,0.26725176,0.44434646,0.77283895,0.16417833,0.8075081999999999,1.0761733,1.1758701999999999,0.19048375,0.5840883000000001,0.533726,741.79486,814.7253,881.2088,820.3663,818.3516,-0.65264892578125,0.10247802734375,0.7633056640625,5.1739501953125,41.27944946289063,2.071075439453125,36.0,59.0,-23.0
881.6524216524216,48.40460257881134,,,,,,,26.737923284215483,26.8352225044457,0.05490213761120268,0.030327057043752458,892.3076923076924,45.61846153846145,0.05112413793103439,53.84615384615381,8.888888888888891,45.925925925925924,9.0,179.6875,,,0.019930100744658598,0.015507143365845532,0.0011081641713178386,1.285220641511229,0.5453517057728978,0.4243253556304893,-4.16645449890874,2021-09-22 20:15:13,2021-09-22 20:15:13.000,0.19567412,0.12392398,0.26988637,-0.092900105,-0.041202348,-0.5060019,-0.34475657,0.0750339,0.17420125,-0.35540682,0.26725176,0.44434646,0.77283895,0.16417833,0.8075081999999999,1.0761733,1.1758701999999999,0.19048375,0.5840883000000001,0.533726,788.5348,828.0219999999997,946.08057,891.685,820.7692,-0.68609619140625,0.04486083984375,0.7786865234375,-4.38140869140625,27.342681884765625,31.4923095703125,21.0,57.99999999999999,-36.99999999999999
880.7977207977208,49.49514684426956,,,,,,,26.43898058600732,26.536625219037752,0.056193545550325436,0.03001708560515129,892.3076923076924,45.61846153846145,0.05112413793103439,57.692307692307736,8.888888888888891,45.925925925925924,9.0,179.6875,,,0.02142306022280037,0.016350924765666356,0.001170428511955191,1.3102048067510208,0.5500932816093964,0.4198528953450337,-4.11347082264715,2021-09-22 20:15:14,2021-09-22 20:15:14.000,0.19567412,0.12392398,0.26988637,-0.092900105,-0.041202348,-0.5060019,-0.34475657,0.0750339,0.17420125,-0.35540682,0.26725176,0.44434646,0.77283895,0.16417833,0.8075081999999999,1.0761733,1.1758701999999999,0.19048375,0.5840883000000001,0.533726,830.0366,796.99634,771.2088,794.17584,854.61536,-0.24725341796875,0.07305908203125,0.998046875,0.560760498046875,-1.308441162109375,-8.785247802734375,20.0,56.99999999999999,-36.99999999999999
879.4117647058823,51.47725542779466,,,,,,,26.299243907606336,26.396201690660376,0.05853600951655581,0.0299054947444353,892.3076923076924,45.61846153846145,0.05112413793103439,61.53846153846154,8.823529411764708,44.852941176470594,9.066666666666666,195.3125,,,0.021901449279962317,0.01606028645037269,0.0011503875315851473,1.3637022818764282,0.5599657459989068,0.410621697595464,-4.1314057343602775,2021-09-22 20:15:15,2021-09-22 20:15:15.000,0.19567412,0.12392398,0.26988637,-0.092900105,-0.041202348,-0.5060019,-0.34475657,0.0750339,0.17420125,-0.35540682,0.26725176,0.44434646,0.77283895,0.16417833,0.8075081999999999,1.0761733,1.1758701999999999,0.19048375,0.5840883000000001,0.533726,819.9634,767.1795,753.8828,785.7143,683.7729,-0.241943359375,0.08837890625,0.99127197265625,1.31591796875,-4.598236083984375,1.831817626953125,55.00000000000001,56.00000000000001,-1.0
879.5248868778281,51.26684037861676,,,,,,,26.564564560547105,26.662520407344925,0.05828924359446588,0.030203311989097932,892.3076923076924,45.61846153846145,0.05112413793103439,61.53846153846154,8.823529411764708,45.58823529411765,9.066666666666666,195.3125,,,0.022894227272718518,0.01610947341239967,0.0011535452209180757,1.4211654649801613,0.5701144776284859,0.4011598168383894,-4.128347769329369,2021-09-22 20:15:16,2021-09-22 20:15:16.000,0.19567412,0.12392398,0.26988637,-0.092900105,-0.041202348,-0.5060019,-0.34475657,0.0750339,0.17420125,-0.35540682,0.26725176,0.44434646,0.77283895,0.16417833,0.8075081999999999,1.0761733,1.1758701999999999,0.19048375,0.5840883000000001,0.533726,793.36993,831.2454,838.0952,790.54944,919.4872,-0.164794921875,0.09228515625,1.00286865234375,1.936492919921875,-5.674896240234375,-0.859832763671875,60.0,66.0,-6.0
880.6267806267807,50.133195827713756,,,,,,,26.455677133668328,26.54988415115526,0.0569289929975009,0.03004187212525908,892.3076923076924,45.61846153846145,0.05112413793103439,57.692307692307736,8.888888888888891,45.185185185185176,9.0,195.3125,,,0.0249079152459743,0.016539748690155655,0.0011814571425928413,1.5059427874378355,0.5842934270208641,0.3879917828850343,-4.101988783567582,2021-09-22 20:15:17,2021-09-22 20:15:17.005,0.19567412,0.12392398,0.26988637,0.9332792,-0.041202348,-0.5060019,-0.34475657,0.66955537,0.17420125,-0.35540682,0.26725176,0.9276221,0.77283895,0.16417833,0.8075081999999999,0.95863724,1.1758701999999999,0.19048375,0.5840883000000001,0.86631715,807.8755,809.8901400000003,645.09155,794.17584,696.6667,-0.0384521484375,0.1248779296875,1.02783203125,2.684173583984375,-9.52545166015625,11.028289794921877,63.0,79.0,-16.0
881.5954415954418,49.06703808233729,,,,,,,26.91077297989963,26.999703509556678,0.055657091413199286,0.030525081812127614,892.3076923076924,45.61846153846145,0.05112413793103439,53.84615384615381,9.629629629629632,45.185185185185176,9.0,195.3125,,,0.028150954017314617,0.01780970452063731,0.001267751996315314,1.580652502386786,0.5960597381715673,0.37709726664875215,-4.028011772461803,2021-09-22 20:15:18,2021-09-22 20:15:18.031,0.19567412,0.12392398,0.26988637,0.85779774,-0.041202348,-0.5060019,-0.34475657,0.67536145,0.17420125,-0.35540682,0.26725176,0.91032207,0.77283895,0.16417833,0.8075081999999999,0.9948450000000001,1.1758701999999999,0.19048375,0.5840883000000001,0.6449229000000001,814.3223,777.6557,766.77655,801.4286,745.42126,0.00286865234375,0.1151123046875,1.0159912109375,0.889739990234375,-1.9140625,2.25799560546875,53.0,92.0,-39.0
882.6780626780627,48.520625492913254,,,,,,,27.106965902867888,27.188905692625546,0.05496978745081839,0.0307099123100724,892.3076923076924,45.61846153846145,0.05112413793103439,53.84615384615381,9.629629629629632,45.925925925925924,9.0,195.3125,,,0.032311143026152976,0.01949409372623212,0.0013811803983873026,1.6574837219887613,0.6075074193201927,0.366523912881186,-3.9376437451258655,2021-09-22 20:15:19,2021-09-22 20:15:19.001,0.21601264,0.6472600000000001,0.26988637,0.77622247,-0.029236373,-0.45090055,-0.34475657,0.5704535,0.39422452,0.3298895,0.26725176,0.6951351,1.1517959,0.4208342000000001,0.8075081999999999,0.76155615,1.1222082,0.101818286,0.5840883000000001,0.46793568,834.87177,790.14655,767.98535,790.9524,608.8278,0.00213623046875,0.120849609375,1.0196533203125,1.891632080078125,-3.51409912109375,-0.530853271484375,32.0,100.0,-68.0
884.6153846153846,47.671220547587055,,,,,,,27.26585069041416,27.336343323568478,0.053889205836402734,0.03082226599785948,892.3076923076924,45.61846153846145,0.05112413793103439,53.84615384615381,9.701492537313431,47.014925373134325,8.933333333333334,195.3125,,,0.038273782238334886,0.021850609482732198,0.0015396722415288535,1.7516116549783831,0.6206821247063917,0.3543491634931213,-3.823526463883013,2021-09-22 20:15:20,2021-09-22 20:15:20.007,0.07343212,0.41788757,0.26988637,0.42600897,-0.09770355,-0.2604783,-0.34475657,0.25070685,0.28817633,0.3754353,0.26725176,0.6052831,1.0800787,0.4363647,0.8075081999999999,0.67424554,0.9390075999999999,0.24517457,0.5840883000000001,0.30114946,789.7436,790.9524,766.3736,795.38464,786.9231,-0.0030517578125,0.1116943359375,1.019775390625,1.682281494140625,-3.671112060546875,-0.37384033203125,36.0,91.0,-55.0
886.1079219288176,47.40428347214141,,,,,,,27.306612935763017,27.36160723124619,0.0534971895623674,0.03081635121410933,892.3076923076924,45.61846153846145,0.05112413793103439,53.84615384615381,9.701492537313431,47.76119402985074,8.933333333333334,195.3125,,,0.04602750760709009,0.02527432546678432,0.0017744615576509677,1.8211171517744256,0.6298555207153821,0.3458621649363278,-3.677966202194959,2021-09-22 20:15:21,2021-09-22 20:15:21.000,-0.10561029599999999,0.30930284,0.060658794,0.13652688,0.08565629,-0.23309967,-0.28840208,0.13104789,0.60364366,0.18257238,-0.27563822,0.64193493,0.8913880999999999,0.2776554,0.6586425,0.73787415,0.95917606,0.08352427,0.5198791,0.42636007,801.8315,804.2491,782.8938,798.60803,948.0952,0.00799560546875,0.112548828125,1.01824951171875,1.7047119140625,-3.671112060546875,-0.157012939453125,44.0,88.0,-44.0
887.6578645235362,46.69071459409004,,,,,,,27.306612935763017,27.368258233547827,0.05259989964619082,0.030762542672249357,892.3076923076924,45.61846153846145,0.05112413793103439,53.84615384615381,9.701492537313431,47.76119402985074,8.933333333333334,195.3125,,,0.05915697039080017,0.03143788609457364,0.002199629608390972,1.8817095466546336,0.637505232056834,0.3387904542389191,-3.459741549859268,2021-09-22 20:15:22,2021-09-22 20:15:22.025,-0.18652564,0.73522484,0.0947863,-0.21785732,-0.098202445,0.21841615,-0.31460157,-0.154507,0.42927748,0.64873093,0.09050565,0.23089984,0.7993147,0.303674,0.5713038,0.7387511999999999,1.0388173,-0.07793186,0.45759556,0.545691,781.685,793.36993,807.8755,798.20514,678.5348,0.00244140625,0.09759521484375,1.02020263671875,1.256103515625,-3.93280029296875,0.201873779296875,66.0,89.0,-23.0
889.8207056101793,45.147824381947935,,,,,,,27.401673532654428,27.47861612833881,0.05073811397880272,0.030794600934650317,892.3076923076924,45.61846153846145,0.05112413793103439,53.84615384615381,9.774436090225564,48.120300751879704,8.866666666666667,195.3125,,,0.07432978057261311,0.03831968508067223,0.0026743032234606496,1.9397283776244745,0.6445313164544091,0.33227916026250376,-3.2617915440585428,2021-09-22 20:15:23,2021-09-22 20:15:23.019,0.29594272,0.8216646000000001,0.12259613,0.45742354,0.5473916,0.31092125,-0.39462432,0.42339823,0.27567542,0.64873093,0.09026047,0.29854548,1.1685807,0.48588052,0.37813926,0.7650831,0.6522595,0.22174759,0.3906668,0.39352196,812.3077,781.28204,779.67035,813.5165,696.6667,0.01116943359375,0.105224609375,1.01800537109375,1.936492919921875,-3.910369873046875,0.485992431640625,83.0,89.0,-6.0
891.0352805089647,44.67503097502593,,,,,,,27.401673532654428,27.47861612833881,0.05013834126692186,0.030752624651408225,892.3076923076924,45.61846153846145,0.05112413793103439,53.84615384615381,9.774436090225564,48.120300751879704,8.866666666666667,195.3125,,,0.07506252411666757,0.03812517617405441,0.0026598885561043965,1.9688439936377369,0.6479420492377722,0.3290977097888804,-3.266880423106433,2021-09-22 20:15:24,2021-09-22 20:15:24.000,0.623268,0.74067724,0.8907521999999999,0.78952533,0.5171508,-0.025750466,0.6925378000000001,0.78106034,0.9089881999999999,0.1980131,0.5983196999999999,1.016857,1.0957263000000002,0.39076823,0.63304114,0.6356951,0.7227283,0.0963286,0.5464704,0.6349771,803.8461,807.8755,800.2198,811.5018299999997,758.315,0.012939453125,0.10552978515625,1.01739501953125,1.7047119140625,-2.998199462890625,-0.16448974609375,89.0,94.0,-5.0
892.0185078079816,43.91833521078144,,,,,,,27.524094128159017,27.613090567764374,0.049234780249913186,0.030855967546902,892.3076923076924,45.61846153846145,0.05112413793103439,53.84615384615381,9.774436090225564,48.872180451127825,8.866666666666667,195.3125,,,0.07459396873754592,0.03765095848827458,0.0026325814861398967,1.9811970725997932,0.6493348399866511,0.3277487378550243,-3.279396867204382,2021-09-22 20:15:25,2021-09-22 20:15:25.000,0.66047627,0.6842062,0.91250366,0.870958,0.48865682,0.05310953,0.6675725,0.83834887,0.9518946,0.24831603,0.64783514,1.025274,1.0426483,0.43656906,0.68310416,0.7228089,0.9873973,0.14291099999999998,0.53812283,0.56237257,836.08057,806.26373,776.4469,838.4981700000003,763.95605,0.0081787109375,0.1129150390625,1.01934814453125,1.413116455078125,-4.20196533203125,0.25421142578125,92.0,92.0,0.0
891.9632606199773,43.87942961886985,,,,,,,28.85145507486277,28.960010971050572,0.04919421186515075,0.03234601283331892,892.3076923076924,39.91615384615382,0.04473362068965514,53.84615384615381,10.44776119402985,50.0,8.933333333333334,195.3125,,,0.07403590776142117,0.037549082133603716,0.0026425951437685264,1.9717101871623215,0.6481438589135669,0.32872166666967073,-3.2821063449161887,2021-09-22 20:15:26,2021-09-22 20:15:26.016,0.032542456000000004,0.15745610000000002,0.72157586,0.43565109999999996,0.26841885,0.086340025,0.3199382,0.55187446,0.7128749,0.21811067,0.42211428,0.7877772,1.038141,0.49446204,0.83090115,0.7678617,0.7703647,0.15158452,0.5359303000000001,0.36403915,797.3993,795.78754,782.49084,792.1612,733.73627,0.0108642578125,0.11004638671875,1.012451171875,1.921539306640625,-3.357086181640625,0.097198486328125,88.0,92.0,-4.0
893.8692886061307,42.01273958381546,,,,,,,27.621639953562216,27.724644074030905,0.04700098786180325,0.030901207039604705,892.3076923076924,34.21384615384618,0.038343103448275885,53.84615384615381,9.774436090225564,49.62406015037594,8.866666666666667,195.3125,,,0.07350730789202897,0.037812613706896085,0.0026838964876717553,1.9439890736413987,0.6447793514792034,0.3316784853483923,-3.2751125360710738,2021-09-22 20:15:27,2021-09-22 20:15:27.001,0.030636951000000006,0.06607553,0.6069157,0.07244929,0.050611567,-0.015939593000000002,0.29872197,0.4103686,0.6704363,0.18712579999999998,0.37806103,0.9112792,0.8674668,0.37515113,0.78147966,0.84522766,0.7570616,-0.03504115,0.67245173,0.4275451,805.8608,803.4432400000003,787.7289400000003,809.0842,578.60803,0.0048828125,0.1064453125,1.02484130859375,1.8841552734375,-3.581390380859375,-0.201873779296875,88.0,85.0,3.0
894.1584731058415,41.70636848995071,,,,,,,27.621639953562216,27.724644074030905,0.046643150788567116,0.030891213117534982,892.3076923076924,34.21384615384618,0.038343103448275885,53.84615384615381,9.774436090225564,49.62406015037594,8.866666666666667,195.3125,,,0.07329472247286373,0.03860333232741469,0.0027727567405505145,1.8986630960046025,0.6391750567385397,0.33664479921876056,-3.254416676511779,2021-09-22 20:15:28,2021-09-22 20:15:28.000,0.16404516,-0.7473141999999999,0.3839208,0.12578844,0.13108587,-0.13811632,-0.10013877,0.12618513,0.6729961999999999,-0.015286230500000001,0.23209465,0.8729658000000001,0.8804846,0.25911805,0.7603135999999999,0.70796126,0.78880703,-0.008475020500000001,0.5912451,0.48570186,793.7729,800.2198,809.8901400000003,803.8461,1002.49084,0.0074462890625,0.10693359375,1.0263671875,2.056121826171875,-2.519683837890625,0.4486083984375,87.0,77.0,10.0
894.5633314054365,41.270198622279636,,,,,,,27.62975322733201,27.731986871469804,0.04613446267402955,0.030886302017234794,892.3076923076924,34.21384615384618,0.038343103448275885,46.15384615384619,9.774436090225564,49.62406015037594,8.866666666666667,195.3125,,,0.07366071667227019,0.04050808909683549,0.0029655146761827077,1.8184199332677136,0.6288568234506124,0.3458259623895303,-3.2062535940271197,2021-09-22 20:15:29,2021-09-22 20:15:29.000,-0.32298790000000005,-0.803244,-0.4152342000000001,-0.257353,-0.029647179,-0.5210452999999999,-0.23809070000000002,0.05029261,0.44582079999999996,-0.25636116,0.15055226,0.31295058,0.87087655,0.30892628,0.68936485,0.5571618,0.83464974,-0.05493618,0.35904664,0.6177446999999999,846.5567599999997,806.6667,823.1868,881.2088,731.7216,-0.0865478515625,0.12774658203125,1.00994873046875,9.1815185546875,32.65869140625,-6.018829345703125,89.0,68.0,21.0
895.0260266049739,40.80501012478332,,,,,,,27.564780172730426,27.668243328809506,0.045590864300969536,0.030797741466010282,892.3076923076924,34.21384615384618,0.038343103448275885,46.15384615384619,9.774436090225564,48.872180451127825,8.866666666666667,195.3125,,,0.07448145707501404,0.042858800924564455,0.0031958687449033397,1.737833431367071,0.6179181220324371,0.35556809466276085,-3.1498442658897825,2021-09-22 20:15:30,2021-09-22 20:15:30.001,-0.6136294,-0.83538175,-0.88499516,-0.14075220000000002,-0.06901838,-0.6892619000000001,-0.11660687,0.17569359,0.21514405,-0.33984256,0.12982069,0.052753292,0.7744314,0.3407927,0.631613,0.59074914,0.89408416,0.042351417,0.43408743,0.71916157,875.56775,801.4286,821.5751,870.7326,891.685,-0.35516357421875,0.2130126953125,0.95880126953125,-0.485992431640625,-3.12530517578125,3.4393310546875,82.0,71.0,11.0
895.1995373048005,40.6443694670452,,,,,,,27.564780172730426,27.669727404601158,0.045402580959116916,0.03079177214023188,892.3076923076924,34.21384615384618,0.038343103448275885,46.15384615384619,9.774436090225564,48.872180451127825,8.866666666666667,195.3125,,,0.07423191338047358,0.045095752867271056,0.0034300942446516837,1.6460954449293284,0.6047024080817403,0.3673556171633183,-3.098967208365319,2021-09-22 20:15:31,2021-09-22 20:15:31.000,-0.6136294,0.40167509999999995,-0.88499516,-0.14075220000000002,-0.06901838,-0.05749699,-0.11660687,0.17569359,0.21514405,0.19006181,0.12982069,0.052753292,0.7744314,0.24283172,0.631613,0.59074914,0.89408416,0.4098301,0.43408743,0.71916157,805.05493,807.47253,751.8681,791.3553,720.0366,-0.260498046875,0.10174560546875,0.98406982421875,1.727142333984375,-4.000091552734375,0.082244873046875,76.0,80.0,-4.0
895.0466200466199,40.68313820363429,,,,,,,27.142383371984746,27.243452685847398,0.04545365268405264,0.030325105714125812,892.3076923076924,34.21384615384609,0.03834310344827579,46.15384615384619,9.090909090909092,48.48484848484848,8.8,195.3125,,,0.06664368454712942,0.04379462743522753,0.003417886742725079,1.521731966910685,0.5853320705712979,0.38464859994996253,-3.128244130419424,2021-09-22 20:15:32,2021-09-22 20:15:32.020,0.55685794,0.5724129,-0.88499516,0.8093415,0.41445237,0.33295992,-0.11660687,0.21409754,0.7775246,0.37635250000000003,0.12982069,0.9320039000000001,1.2247974,0.19735269,0.631613,0.93760663,1.0814865,0.16882631,0.43408743,0.5152826,769.19415,803.4432400000003,753.0769,785.7143,780.4762,-0.1507568359375,0.13092041015625,1.0064697265625,2.04864501953125,-9.97406005859375,0.01495361328125,69.0,87.0,-18.0
894.9103528050896,40.47068437457834,,,,,,,27.138663980766054,27.241986936082252,0.04522317151402182,0.030325567131612826,892.3076923076924,34.21384615384601,0.03834310344827569,38.46153846153845,9.022556390977444,48.872180451127825,8.866666666666667,148.4375,,,0.061155590660035564,0.04307372983208162,0.0034307820046282304,1.419788601972575,0.5680432141691887,0.4000899946513031,-3.144841984360266,2021-09-22 20:15:33,2021-09-22 20:15:33.014,0.43916540000000004,0.9065798,-0.88499516,0.4701799,0.5319583000000001,0.10063089,-0.11660687,0.17169398,0.8895118000000001,0.3169714,0.12982069,0.6516386,1.1780431,0.16669369,0.631613,0.8966936,0.9615444,-0.062070534000000004,0.43408743,0.48358375,833.2601,790.54944,749.45056,813.1135,646.7033,-0.071533203125,0.1187744140625,1.0184326171875,1.757049560546875,-4.844970703125,1.21124267578125,62.0,92.0,-30.0
894.7552447552448,40.585156879796095,,,,,,,27.167334242924014,27.27136900546693,0.045358948290823306,0.030362866719328908,892.3076923076924,34.21384615384601,0.03834310344827569,40.38461538461536,9.090909090909092,48.48484848484848,8.8,210.9375,,,0.05509911904403906,0.04253280758074103,0.003469003815746311,1.2954498463202344,0.544991216242581,0.42069649997693503,-3.1574795577703187,2021-09-22 20:15:34,2021-09-22 20:15:34.000,0.13359998,0.7840490999999999,-0.88499516,0.43843037,0.43615305,-0.10449014,-0.11660687,0.35145146,0.50058824,0.26262406,0.12982069,0.7399344,1.1329472,0.082915075,0.631613,0.55265546,1.1166213,-0.13283049,0.43408743,0.45149454,799.41394,796.99634,782.8938,815.5311,943.2601,-0.071533203125,0.10791015625,1.01776123046875,1.136474609375,-2.55706787109375,-0.6280517578125,61.0,79.0,-18.0
895.2214452214453,40.90898064752847,,,,,,,27.33309132839655,27.428898137796374,0.0456970516802232,0.030532212419950844,892.3076923076924,34.21384615384609,0.03834310344827579,46.15384615384619,9.090909090909092,48.48484848484848,9.428571428571429,210.9375,,,0.050467849785583066,0.04195432765709505,0.003477072369969936,1.2029235743704805,0.5262590675545297,0.4374833769717533,-3.171173689122916,2021-09-22 20:15:35,2021-09-22 20:15:35.019,0.15455875,0.048964935999999994,0.88952994,0.414815,-0.007232785699999998,-0.17903481,0.005004465,0.121149875,0.40278614,-0.0996033,0.3440915,0.64391094,1.1439718,0.11949808,0.55939543,0.5659405,1.1406513,-0.13667145,0.48272824,0.4929203,808.2784,795.78754,741.79486,803.0403,810.293,-0.0633544921875,0.1070556640625,1.01361083984375,0.6280517578125,-3.386993408203125,-0.097198486328125,60.0,70.0,-10.0
895.8357432041643,40.753518525218226,,,,,,,27.31154967995676,27.414595508983435,0.045492177371103566,0.030487229257308568,892.3076923076924,34.21384615384601,0.03834310344827569,46.15384615384619,9.022556390977444,48.120300751879704,8.866666666666667,195.3125,,,0.046529039152549634,0.041537716658872084,0.0034881712180070946,1.120163622248876,0.5082090135639958,0.4536917674077822,-3.181153429332552,2021-09-22 20:15:36,2021-09-22 20:15:36.013,0.3499664,0.24562292,0.9306861999999999,0.8069466,-0.028000494,0.032029487,0.26291302,0.40114596,0.3150329,0.18081535,0.41781434,0.69105,1.0636538,0.19512677,0.59269565,0.6892142,0.9706988000000001,-0.17335598,0.38979673,0.39997405,818.3516,801.4286,775.64105,808.6813400000003,709.9634,-0.06781005859375,0.1002197265625,1.0052490234375,1.667327880859375,-4.80010986328125,3.312225341796875,63.0,66.0,-3.0
895.9514170040486,40.7652606960908,,,,,,,27.33615837966014,27.440234151066107,0.045499409814434816,0.03051075969171285,900.0,34.21384615384618,0.03801538461538464,46.15384615384619,9.022556390977444,48.120300751879704,8.866666666666667,195.3125,,,0.043467463533681534,0.041368325117425164,0.0035071631777722862,1.0507426493651342,0.4920309162623223,0.4682696724641479,-3.1852397847664906,2021-09-22 20:15:37,2021-09-22 20:15:37.000,-0.23413712,0.6895798000000001,0.80914456,-0.034989875,0.019885508,-0.07144292,0.41865996,0.24570128,0.5248381999999999,0.11703912,0.37488475,0.52418053,1.1936997999999999,0.007890516,0.644947,0.8526548,1.3314347,-0.06152156,0.23852363,0.8125536,766.3736,797.8022,782.49084,788.5348,659.59705,-0.04754638671875,0.11431884765625,1.016357421875,2.355194091796875,-3.043060302734375,-0.8673095703125,64.0,57.99999999999999,6.000000000000008
896.0670908039331,40.79864951418888,,,,,,,27.212892344847866,27.316310343322503,0.04553079778611795,0.030369257641671688,900.0,34.21384615384618,0.03801538461538464,46.15384615384619,9.022556390977444,47.368421052631575,8.3125,195.3125,,,0.040903548191570674,0.041485953929785914,0.003538028623193981,0.9859613752837662,0.4760237823331696,0.4828016535598738,-3.1824003685590667,2021-09-22 20:15:38,2021-09-22 20:15:38.000,0.5278822,0.65935713,0.42369872,0.59334177,0.5062845,-0.27199359999999995,0.15332733,0.5895121,0.9412155999999999,0.02347516,0.38122842,1.031993,1.0247833,0.06502787,0.70043916,0.7511624,1.1372961000000001,-0.04096037,0.5848107,0.5812236,804.2491,801.8315,793.36993,820.7692,1048.022,-0.04632568359375,0.1148681640625,1.0179443359375,1.996307373046875,-3.730926513671875,0.4486083984375,64.0,60.0,4.0
896.0092539039908,40.75451095221798,,,,,,,27.221127446366328,27.32476473961915,0.04548447549469719,0.030380408826986432,900.0,34.21384615384618,0.03801538461538464,46.15384615384619,9.022556390977444,47.368421052631575,8.3125,195.3125,,,0.039872694022109335,0.04180046837996998,0.003565574519452531,0.95388151299318,0.4677766877143535,0.4903928646719648,-3.1748477342517654,2021-09-22 20:15:39,2021-09-22 20:15:39.001,0.45868766,-0.16549481,0.50949675,0.5091977,0.47387847,-0.038741536,0.10707263,0.59177506,0.8575267,0.31759086,0.35775384,0.9864877000000001,1.0258079,0.096283026,0.7647208000000001,0.58468133,0.9878995999999999,-0.10783567,0.5000525,0.44574225,810.293,803.8461,793.36993,792.5641,814.7253,-0.04913330078125,0.11309814453125,1.01409912109375,1.92901611328125,-4.224395751953125,-0.25421142578125,61.0,63.0,-2.0
896.0670908039328,40.80963540072004,,,,,,,27.12214120055515,27.223892875799013,0.04554305790217837,0.03026798046586191,900.0,34.21384615384618,0.03801538461538464,46.15384615384619,9.022556390977444,46.61654135338347,8.3125,195.3125,,,0.039766172632800086,0.04228626894968696,0.003593862899668856,0.9404039093662924,0.4643069292159036,0.4937313898756385,-3.1632928567460095,2021-09-22 20:15:40,2021-09-22 20:15:40.011,0.14132552,0.03524141,0.67112523,0.48310649999999994,0.34662408,-0.034635846,0.19783418,0.45676583,0.41380146,0.25629616,0.09343037,0.48253554,1.0254941,0.14370118,0.6821243,0.57854456,0.84690076,0.035104163,0.34949106,0.52267903,790.14655,801.8315,787.7289400000003,791.75824,709.9634,-0.041259765625,0.1123046875,1.0155029296875,1.7047119140625,-3.94775390625,-0.665435791015625,60.0,64.0,-4.0
896.6783216783217,41.322738394853594,,,,,,,27.017283381883665,27.118690812240764,0.04608423934852067,0.03013040767096404,900.0,34.21384615384618,0.03801538461538464,46.15384615384619,9.090909090909092,46.21212121212121,8.25,195.3125,,,0.04093737867796428,0.04308207664574448,0.0036263733686413475,0.9502183243065176,0.4670773188951247,0.4915473706908401,-3.1446482234512763,2021-09-22 20:15:41,2021-09-22 20:15:41.021,0.3256185,-0.1914246,0.4240946,-0.030253517,0.2712805,-0.08481308,-0.02825336,0.21547449999999999,0.39241729999999997,0.15119135,0.03291813,0.49179086,1.0049065000000001,0.15245953,0.6379683,0.6109232,1.1282851999999999,0.06583375,0.36104083,0.54889745,808.6813400000003,796.1905,787.326,794.17584,726.08057,-0.03729248046875,0.1124267578125,1.017333984375,2.22808837890625,-3.506622314453125,0.28411865234375,62.0,68.0,-6.0
896.969696969697,41.590380720966074,,,,,,,27.017283381883665,27.11997202032086,0.04636765418215813,0.030120619986559488,900.0,34.21384615384618,0.03801538461538464,46.15384615384619,9.090909090909092,46.21212121212121,8.8,195.3125,,,0.042986642552135065,0.04384922231211347,0.003650321270344385,0.980328504942718,0.4750630387736195,0.484595761908788,-3.1269982955067688,2021-09-22 20:15:42,2021-09-22 20:15:42.033,-0.009122041,-0.2336343,0.24907374,0.39760500000000004,0.11042525,-0.28974953,-0.16966048,0.14502902,0.45083672,-0.013213688500000001,-0.031356234,0.3709849,1.0740871,0.113485605,0.67325765,0.647929,0.9988142,-0.011362398999999999,0.454089,0.54794365,817.9487,807.8755,794.17584,799.0110000000003,750.65936,-0.039306640625,0.10992431640625,1.02166748046875,1.8841552734375,-3.99261474609375,0.11962890625,63.0,65.0,-2.0
897.2027972027972,41.82339290747562,,,,,,,26.604524308333435,26.706067917071326,0.0466153171143337,0.029652743383411388,900.0,34.21384615384618,0.03801538461538464,46.15384615384619,8.333333333333332,45.45454545454545,8.8,195.3125,,,0.046092386846838085,0.0447335948540183,0.0036730552000828975,1.0303752022893309,0.4877550963313568,0.4733761985416982,-3.1070304969147404,2021-09-22 20:15:43,2021-09-22 20:15:43.004,-0.22490257,-0.2839684,0.26220313,0.4410261,0.11103274,-0.4171742,-0.46145642,0.09579264400000001,0.6162996000000001,0.16581327,0.14266586,0.45111957,1.0762334999999998,0.13755834,0.62801397,0.7605755,0.86878514,-0.19053164,0.6006476,0.5535800999999999,752.2710599999997,791.3553,792.5641,791.3553,686.1905,-0.0386962890625,0.10711669921875,1.0147705078125,1.891632080078125,-3.30474853515625,-0.79254150390625,67.0,62.0,5.0
896.8531468531468,41.341987067807935,,,,,,,26.67234984684684,26.773117111496052,0.04609671852394959,0.029739930043657686,900.0,34.21384615384618,0.03801538461538464,46.15384615384619,8.333333333333332,46.21212121212121,8.8,195.3125,,,0.05149039743453625,0.04594364851558262,0.003700244271045907,1.1207293956437163,0.5091289741781432,0.4542835908089243,-3.0803396657283835,2021-09-22 20:15:44,2021-09-22 20:15:44.023,0.20918213,-0.10378844,0.24471132,0.34870967,0.19896705,-0.32932892,-0.18918225,0.20570609,0.5968081000000001,0.019518014,0.48107395,0.57396716,0.91231906,0.11576703,0.45701817,0.6984191,0.8081543000000001,-0.34069937,0.44020784,0.3041012,788.1319,797.3993,790.14655,790.14655,714.7985,-0.03564453125,0.11004638671875,1.0142822265625,2.130889892578125,-2.99072265625,-0.13458251953125,70.0,57.99999999999999,12.000000000000007
896.4452214452216,40.885510983521655,,,,,,,26.629979129313302,26.731166082750093,0.04560848784224348,0.02970619787161257,900.0,34.21384615384618,0.03801538461538464,46.15384615384619,8.333333333333332,45.45454545454545,8.25,195.3125,,,0.0527788146165382,0.04345202978524232,0.003441907314057589,1.2146455499867936,0.5295209945342724,0.4359469266898723,-3.136097712936268,2021-09-22 20:15:45,2021-09-22 20:15:45.003,0.014800585,-0.16880098,0.22285613,-0.17104404,0.039244674,-0.041499883,-0.12508093,0.1884638,0.72561085,0.22041893,0.31094116,0.7166206999999999,0.87978965,0.055164155,0.5258352,0.7493108,0.8245534999999999,-0.31876945,0.34090465,0.39288276,788.5348,842.9304,886.04395,816.7399,768.3883,0.01611328125,0.1279296875,1.02227783203125,-2.385101318359375,6.89361572265625,10.041351318359377,70.0,51.0,19.0
896.0372960372963,40.653730724733634,,,,,,,26.629979129313302,26.731166082750093,0.0453705787744816,0.02971972176502446,896.1538461538463,34.21384615384618,0.038178540772532216,46.15384615384619,8.333333333333332,45.45454545454545,8.25,195.3125,,,0.05282617780412641,0.03887234304740703,0.003014491188785919,1.358965620870908,0.5577499507843579,0.410422414090886,-3.2474722568658434,2021-09-22 20:15:46,2021-09-22 20:15:46.001,-0.34496284,-0.06408016400000001,0.41035479999999996,-0.34870926,-0.053142603,0.12461118,-0.44886136,0.34605375,0.6135484999999999,0.2095797,0.012332006999999999,0.54767776,0.8697181999999999,0.04616249,0.5565247,0.73615855,0.9092815000000001,-0.043713383,0.3118725,0.51989716,785.3113400000003,834.4689,826.0073,795.78754,660.40295,-0.1824951171875,0.08648681640625,0.99725341796875,3.267364501953125,0.441131591796875,-3.686065673828125,75.0,45.0,30.0
895.3152111046849,40.657966950550524,,,,,,,26.69735548086864,26.79803854076316,0.04541190236272728,0.029818945495104568,892.3076923076924,34.21384615384618,0.038343103448275885,46.15384615384619,8.270676691729323,45.11278195488722,8.3125,195.3125,,,0.053216240803163985,0.03557903844511225,0.002710574368939615,1.4957189156548074,0.5815610553809634,0.3888170760522629,-3.3359986222610605,2021-09-22 20:15:47,2021-09-22 20:15:47.013,0.9493391999999999,-0.014669102,0.41035479999999996,-0.34870926,0.8658681,0.12409416599999999,-0.44886136,0.34605375,1.7736087,0.20277879999999998,0.012332006999999999,0.54767776,1.5712669,0.089430556,0.5565247,0.73615855,1.2298813,0.006862386,0.3118725,0.51989716,886.04395,822.7839,919.8901400000001,920.293,725.6777,-0.5927734375,0.01934814453125,0.82568359375,0.4486083984375,-2.818756103515625,-1.973876953125,83.0,27.0,56.0
895.1995373048005,40.66642162878156,,,,,,,26.18878784765596,26.28621190689416,0.04542721475394968,0.0292546932346538,892.3076923076924,34.21384615384618,0.038343103448275885,46.15384615384619,7.518796992481202,44.360902255639104,8.3125,195.3125,,,0.053708844747971364,0.03251637605503747,0.002435528875240089,1.6517475581246617,0.6057792759804254,0.3667505200783869,-3.4260114379341102,2021-09-22 20:15:48,2021-09-22 20:15:48.001,1.0432873,-0.014669102,0.41035479999999996,-0.34870926,0.9276935,0.12409416599999999,-0.44886136,0.34605375,1.7736087,0.20277879999999998,0.012332006999999999,0.54767776,1.7105526000000002,0.089430556,0.5565247,0.73615855,1.3113493,0.006862386,0.3118725,0.51989716,818.3516,805.05493,807.47253,801.4286,837.28937,-0.576416015625,0.046875,0.84527587890625,-0.560760498046875,-6.68426513671875,12.501220703125,87.0,21.0,66.0
895.7200694042798,40.37671732996728,,,,,,,26.257166000195898,26.353038832884486,0.04507738378221311,0.029314031132135807,892.3076923076924,34.21384615384601,0.03834310344827569,46.15384615384619,7.518796992481202,45.11278195488722,8.3125,195.3125,,,0.054198800439263936,0.02891741376866924,0.0021226701886607447,1.874261677508173,0.6358459618862595,0.3392514340535497,-3.5433113127765394,2021-09-22 20:15:49,2021-09-22 20:15:49.005,0.3990165,0.54963464,0.41035479999999996,0.33503428,0.33433777,0.26843587,-0.44886136,0.089200646,0.679446,0.37035334,0.012332006999999999,0.76800007,1.2604488999999999,0.6697494,0.5565247,0.569738,1.1294897,0.6716528,0.3118725,0.67864037,796.1905,800.6227,792.1612,822.7839,915.4579,-0.5396728515625,0.1392822265625,0.87457275390625,3.24493408203125,-8.306732177734375,1.757049560546875,93.0,16.0,77.0
896.0092539039908,40.15615815311834,,,,,,,26.325366546244997,26.42461806522194,0.04481667792844152,0.02938068600468473,892.3076923076924,34.21384615384601,0.03834310344827569,46.15384615384619,7.518796992481202,45.86466165413533,8.3125,195.3125,,,0.05446184627887427,0.02627781350241312,0.0019006094132535587,2.072541015403469,0.6590230986623156,0.3179783144286876,-3.639030288887428,2021-09-22 20:15:50,2021-09-22 20:15:50.000,0.5715608,0.32218876,0.41035479999999996,0.39756444,0.45431697,0.25404364,-0.44886136,0.11237761,0.76448554,0.39260572,0.012332006999999999,0.74743414,1.2464329,0.67422754,0.5565247,0.64807886,1.0417353999999999,0.64561975,0.3118725,0.7581911,823.1868,797.3993,1010.54944,809.0842,743.4066,-0.56097412109375,0.1124267578125,0.84442138671875,-9.114227294921877,7.843170166015625,20.3668212890625,91.0,13.0,78.0
896.3562753036438,39.98810728897778,,,,,,,26.325366546244997,26.424618065221942,0.04461184507848921,0.0293693113682137,892.3076923076924,34.21384615384601,0.03834310344827569,46.15384615384619,7.518796992481202,45.86466165413533,8.3125,195.3125,,,0.05468712430416872,0.023909918211029287,0.001705576538921003,2.287215030243908,0.681012960079334,0.2977476761363845,-3.733461918219165,2021-09-22 20:15:51,2021-09-22 20:15:51.020,0.6145515,0.52782893,0.41035479999999996,0.61708844,0.49850821,0.16533966,-0.44886136,0.26656342,0.7596543,0.29353344,0.012332006999999999,0.5313206,1.2137091999999998,0.72150767,0.5565247,0.7705668999999999,1.0377663000000001,0.6201624,0.3118725,0.90887314,780.07324,820.7692,756.7033,778.8644400000003,607.619,-0.35687255859375,0.14642333984375,0.944580078125,2.818756103515625,-16.61346435546875,-7.050628662109375,87.0,17.0,70.0
896.6783216783217,40.05724687335304,,,,,,,26.39144603935261,26.492494842002092,0.044672928858564914,0.029432456881477276,900.0,34.21384615384618,0.03801538461538464,46.15384615384619,7.575757575757576,46.21212121212121,8.25,195.3125,,,0.054950491531046586,0.021331637182609883,0.0014983991505735789,2.576009101441295,0.7064813397379551,0.2742542094834501,-3.8475639945165914,2021-09-22 20:15:52,2021-09-22 20:15:52.002,-0.30852216,0.6247723000000001,0.41035479999999996,0.7694019,-0.04263274,0.09884881,-0.44886136,0.42496333,0.40128532,0.14148282,0.012332006999999999,0.70866555,1.3099829,0.67900985,0.5565247,0.93019575,1.0954926999999999,0.57949406,0.3118725,0.6681094,796.1905,800.6227,782.0879,795.38464,662.4176,-0.147216796875,0.16668701171875,0.99896240234375,-0.306549072265625,-6.4300537109375,0.590667724609375,87.0,20.0,67.0
896.7948717948718,40.04426010884588,,,,,,,26.17663336686779,26.27652482367581,0.044652641722515776,0.02918909796448445,900.0,34.21384615384618,0.03801538461538464,46.15384615384619,7.575757575757576,45.45454545454545,8.25,195.3125,,,0.05511400673820821,0.0195405944228298,0.0013584978557169085,2.8204877265052413,0.7250593312352638,0.2570687772974844,-3.935261212009846,2021-09-22 20:15:53,2021-09-22 20:15:53.029,0.23218134,0.35342363,0.41035479999999996,0.635835,0.043548074000000006,0.02731213,-0.44886136,0.32691076,0.5730426,0.08894586,0.012332006999999999,0.723542,1.3546387,0.72817844,0.5565247,0.8260293,1.1899662,0.5545996999999999,0.3118725,0.6483412,805.05493,795.38464,794.9817,800.6227,707.5458,-0.09564208984375,0.15789794921875,1.0096435546875,1.3458251953125,-4.88983154296875,1.45050048828125,86.0,23.0,63.0
896.471949103528,39.90879954310065,,,,,,,26.29128838756289,26.38729660399984,0.04451762220001357,0.029327508143287894,900.0,34.21384615384618,0.03801538461538464,38.46153846153845,7.518796992481202,45.86466165413533,8.3125,195.3125,,,0.055228536113428116,0.017968598300380702,0.0012393539164827392,3.0736140454683083,0.7419551533431641,0.2413950295539193,-4.019129583433746,2021-09-22 20:15:54,2021-09-22 20:15:54.028,0.2464806,0.1984921,-0.142736,0.3612203,-0.047035635,0.12490096,-0.18777363,0.041428413,0.6161892,0.26509342,0.24894948,0.5908663000000001,1.2334796000000001,0.70915806,1.1316663,0.8045842,1.0788957000000001,0.5172138,0.7631514,0.72545487,809.4872,778.8644400000003,786.5201400000003,801.4286,759.12085,-0.0762939453125,0.15545654296875,1.0064697265625,2.1234130859375,-1.801910400390625,0.112152099609375,90.0,28.000000000000004,62.0
896.0670908039328,39.831280145494375,,,,,,,26.26570075289983,26.360504071648695,0.04445122530921047,0.02931220331876577,900.0,34.21384615384618,0.03801538461538464,38.46153846153845,7.518796992481202,45.86466165413533,8.3125,179.6875,,,0.0553333493243148,0.016291556169694982,0.0011155585202829485,3.3964434549993507,0.7606955780958778,0.2239682739237663,-4.117108331790532,2021-09-22 20:15:55,2021-09-22 20:15:55.000,0.5165967,0.5732478,0.36455885,0.39043927,0.39183325,-0.092886165,-0.0967413,0.24830237,0.69190335,0.21391362,0.35469252,0.89596045,1.1363767,0.63949084,1.031079,0.96959335,1.1313436000000001,0.43794024,0.8516073000000001,0.72656274,851.79486,789.34064,769.19415,849.3773,729.707,-0.07598876953125,0.150146484375,1.01995849609375,1.457977294921875,-3.880462646484375,-0.441131591796875,92.0,28.000000000000004,64.0
895.7779063042219,39.603854268476375,,,,,,,26.393390862609266,26.492904192872853,0.04421168906908294,0.02946421281085448,900.0,34.21384615384618,0.03801538461538464,38.46153846153845,7.518796992481202,46.61654135338347,8.3125,179.6875,,,0.055388902508770516,0.01515952694845266,0.0010339330876842849,3.6537355484185534,0.7737786312099167,0.2117774045099765,-4.189126103182689,2021-09-22 20:15:56,2021-09-22 20:15:56.031,0.8484610999999999,0.40641356,0.9330834000000001,0.7772148,0.74937814,-0.040070616,0.5254614000000001,0.518501,0.6317626999999999,0.56424594,0.5123754,0.8749027,1.2032923,0.54507136,0.8172911999999999,1.0710613000000002,1.1895705,0.48389265,0.653371,0.43488044,794.9817,800.2198,807.0696,807.8755,725.2747,-0.08319091796875,0.13824462890625,1.009765625,1.398162841796875,-3.4393310546875,0.336456298828125,93.0,31.0,62.0
895.6622325043378,39.50057347981896,,,,,,,26.12023069379789,26.218692603812176,0.044102086753588385,0.02916303685236765,900.0,34.21384615384618,0.03801538461538464,38.46153846153845,7.518796992481202,45.86466165413533,8.3125,195.3125,,,0.0554152813456975,0.01419593099019923,0.0009655886526386523,3.903603179245928,0.7851770067433242,0.20114160448424465,-4.254799905424184,2021-09-22 20:15:57,2021-09-22 20:15:57.006,0.25761184,0.12242271,0.2754687,0.6711535,0.04626597,0.06285479,0.10962111,0.19535166,0.8966950999999999,0.51165277,0.44373345,0.79160005,0.96056485,0.7208859000000001,0.7729676999999999,0.8061153,0.78014994,0.54808784,0.36289412,0.7582073,799.0110000000003,790.54944,784.5055,804.65204,701.5018299999997,-0.07275390625,0.140869140625,1.01312255859375,1.15142822265625,-4.059906005859375,1.966400146484375,93.0,34.0,59.0
895.9514170040485,39.61644766682432,,,,,,,26.12881017528851,26.226717985380088,0.044217182890671516,0.02916319978895735,900.0,34.21384615384618,0.03801538461538464,38.46153846153845,7.518796992481202,45.86466165413533,8.3125,195.3125,,,0.05539215781144943,0.013207335784723988,0.0008970602411097203,4.194044788012258,0.7970489866467729,0.19004303171128736,-4.326982862489832,2021-09-22 20:15:58,2021-09-22 20:15:58.006,0.25220072,0.18175948,0.4393919,0.6691788000000001,0.45656648,0.17532448,0.30241597,0.278444,0.93914264,0.15136470000000002,0.44373345,0.84657,1.0599889,0.6187015,0.78801626,0.78011227,0.7580388000000001,0.38028955,0.35519734,0.61778766,810.293,807.47253,788.1319,817.1429,1051.2454,-0.0684814453125,0.138916015625,1.02001953125,1.15142822265625,0.418701171875,-0.478515625,92.0,33.0,59.0
896.2406015037593,39.72986312342586,,,,,,,26.094475324484,26.190682392828016,0.04432946137093657,0.02911548001809037,900.0,34.21384615384618,0.03801538461538464,38.46153846153845,7.518796992481202,45.86466165413533,8.3125,195.3125,,,0.05531049559609789,0.012568942546743164,0.0008536479429387731,4.400568734434213,0.8047142758448187,0.18286597128865933,-4.376526385078353,2021-09-22 20:15:59,2021-09-22 20:15:59.000,0.19586517,0.043059796,0.48132387,0.22264509,0.44676557,0.0614613,0.34716424,0.37207133,0.46101484,0.1782861,0.43951229999999997,0.2748435,0.90197235,0.44492790000000004,0.7841545999999999,0.7111149,0.6412912,0.41907483,0.35598314,0.28084618,792.1612,794.17584,811.5018299999997,802.2344400000003,800.2198,-0.13128662109375,0.1324462890625,1.00250244140625,2.265472412109375,-2.579498291015625,-0.5682373046875,85.0,33.0,52.0
