HRV_MeanNN,HRV_SDNN,HRV_SDANN1,HRV_SDNNI1,HRV_SDANN2,HRV_SDNNI2,HRV_SDANN5,HRV_SDNNI5,HRV_RMSSD,HRV_SDSD,HRV_CVNN,HRV_CVSD,HRV_MedianNN,HRV_MadNN,HRV_MCVNN,HRV_IQRNN,HRV_pNN50,HRV_pNN20,HRV_HTI,HRV_TINN,HRV_ULF,HRV_VLF,HRV_LF,HRV_HF,HRV_VHF,HRV_LFHF,HRV_LFn,HRV_HFn,HRV_LnHF,Time,TimeStamp,Delta_TP9,Delta_AF7,Delta_AF8,Delta_TP10,Theta_TP9,Theta_AF7,Theta_AF8,Theta_TP10,Alpha_TP9,Alpha_AF7,Alpha_AF8,Alpha_TP10,Beta_TP9,Beta_AF7,Beta_AF8,Beta_TP10,Gamma_TP9,Gamma_AF7,Gamma_AF8,Gamma_TP10,RAW_TP9,RAW_AF7,RAW_AF8,RAW_TP10,AUX_RIGHT,Accelerometer_X,Accelerometer_Y,Accelerometer_Z,Gyro_X,Gyro_Y,Gyro_Z,Attention,Meditation,A_M
921.28801431127,50.519780053847654,,,,,,,27.551055349796943,27.656942472788128,0.05483603310699193,0.029904931923371826,923.0769230769232,34.21384615384618,0.03706500000000002,53.846153846153925,7.751937984496124,41.08527131782946,9.923076923076923,210.9375,,,0.04215337915059826,0.010868201500299709,0.0007170016450020716,3.8785974983474314,0.7844155418631936,0.202242058423802,-4.521914046892478,2021-09-22 19:59:00,2021-09-22 19:59:00.010,0.8211205,0.62220615,0.7015798000000001,0.29283637,0.051800232,0.4957455,0.39210734,-0.26651335,0.31140235,0.4644996,0.11455286,0.34852849999999996,0.40823612,0.4187522,0.58542305,0.35092893,0.0385565,0.108440585,0.5960964,0.0006725953999999999,810.293,801.02563,784.90845,820.3663,1101.6117,-0.28204345703125,0.1024169921875,0.9796142578125,1.502838134765625,-3.865509033203125,0.456085205078125,50.0,33.0,17.0
921.0494931425163,50.58386340803453,,,,,,,27.584592861117414,27.691929131270765,0.0549198102649708,0.029949088584807663,923.0769230769232,34.21384615384618,0.03706500000000002,53.846153846153925,7.751937984496124,41.08527131782946,9.923076923076923,210.9375,,,0.041289432327594695,0.010775139739772451,0.0007091234187547043,3.8319161815776734,0.7823866027811673,0.2041763352086276,-4.530513674188026,2021-09-22 19:59:01,2021-09-22 19:59:01.002,0.8211205,0.30434,0.57060236,0.29283637,0.051800232,0.04168325,0.6995159000000001,-0.26651335,0.31140235,0.027333336,0.56810606,0.34852849999999996,0.40823612,0.18666138,0.6640161,0.35092893,0.0385565,0.08422589,0.4571894,0.0006725953999999999,823.5897,804.65204,814.3223,822.3810000000003,902.96704,-0.2794189453125,0.104736328125,0.98516845703125,2.295379638671875,-3.058013916015625,0.2691650390625,46.0,23.0,23.0
920.9898628503281,50.585988676267746,,,,,,,27.626457497228174,27.734944190419412,0.05492567368734285,0.02999648379595445,923.0769230769232,34.21384615384618,0.03706500000000002,53.846153846153925,7.751937984496124,41.860465116279066,9.923076923076923,210.9375,,,0.04067071318880429,0.010742196609642523,0.0007052504567821121,3.786070453439384,0.780355887269138,0.2061123523362431,-4.533575684776538,2021-09-22 19:59:02,2021-09-22 19:59:02.001,0.8211205,0.5334445,0.8653192,0.29283637,0.051800232,0.3763621,0.77388644,-0.26651335,0.31140235,0.32314655,0.6782811,0.34852849999999996,0.40823612,0.014186269,0.74488527,0.35092893,0.0385565,0.19299868,0.5706625,0.0006725953999999999,791.75824,806.26373,800.6227,805.05493,1091.5385,-0.27838134765625,0.10455322265625,0.98260498046875,2.310333251953125,-3.84307861328125,0.418701171875,39.0,16.0,23.0
921.1091234347048,50.572527135733054,,,,,,,27.559443553781765,27.66766677030941,0.05490394769639692,0.029919846468370568,923.0769230769232,34.21384615384618,0.03706500000000002,53.846153846153925,7.751937984496124,41.08527131782946,9.923076923076923,210.9375,,,0.04053076429002709,0.010769764136490395,0.0007064634958111692,3.7633845807913007,0.7793329856600615,0.2070830043886178,-4.531012688100967,2021-09-22 19:59:03,2021-09-22 19:59:03.001,0.8211205,0.36035100000000003,0.5808513000000001,0.29283637,0.051800232,0.19009624,0.47689,-0.26651335,0.31140235,0.31415522,0.57573247,0.34852849999999996,0.40823612,0.021064574,0.7184683000000001,0.35092893,0.0385565,0.094133124,0.71194965,0.0006725953999999999,820.3663,808.6813400000003,801.02563,833.2601,975.8974599999999,-0.27227783203125,0.1075439453125,0.97772216796875,1.83929443359375,-3.4393310546875,0.07476806640625,33.0,10.0,23.0
921.0494931425163,50.565582413897495,,,,,,,27.559443553781772,27.667666770309406,0.05489996226084818,0.029921783529517045,923.0769230769232,34.21384615384618,0.03706500000000002,53.846153846153925,7.751937984496124,41.08527131782946,9.923076923076923,210.9375,,,0.0405757117167953,0.010803021782299721,0.000709413970049379,3.755959446761168,0.7789816625909234,0.20739884805270015,-4.527929389329807,2021-09-22 19:59:04,2021-09-22 19:59:04.039,0.8211205,0.15038982,0.65406877,0.29283637,0.051800232,-0.28132924,0.68024856,-0.26651335,0.31140235,0.5502633000000001,0.36487800000000004,0.34852849999999996,0.40823612,0.08423810000000001,0.6686864,0.35092893,0.0385565,0.04458959999999999,0.5414085,0.0006725953999999999,862.674,797.3993,793.7729,864.2857,694.65204,-0.27374267578125,0.107666015625,0.98016357421875,2.071075439453125,-2.803802490234375,0.43365478515625,27.0,19.0,8.0
920.9898628503281,50.55856585897622,,,,,,,27.559443553781765,27.66766677030941,0.054895898313695776,0.02992372084149694,923.0769230769232,34.21384615384618,0.03706500000000002,53.846153846153925,7.751937984496124,41.08527131782946,9.923076923076923,210.9375,,,0.0404085325739164,0.010722428572684971,0.0007070655930088706,3.7685989046227633,0.7795152538674782,0.20684484435615674,-4.535417603037723,2021-09-22 19:59:05,2021-09-22 19:59:05.025,0.8211205,0.6601791,0.6050468000000001,0.29283637,0.051800232,0.6374754,0.52586776,-0.26651335,0.31140235,0.74817085,0.33437684,0.34852849999999996,0.40823612,0.18868431,0.6105338,0.35092893,0.0385565,-0.08883261,0.29902974,0.0006725953999999999,803.0403,799.0110000000003,790.9524,803.8461,753.0769,-0.27569580078125,0.109375,0.97857666015625,1.6448974609375,-2.51220703125,0.61309814453125,23.0,29.0,-5.9999999999999964
921.0494931425163,50.57472373695853,,,,,,,27.17941158673572,27.281938188666075,0.054909887159704435,0.029509175987929438,923.0769230769232,34.21384615384618,0.03706500000000002,53.846153846153925,6.9767441860465125,40.31007751937985,9.214285714285714,210.9375,,,0.04042312324706452,0.010645654050895185,0.0007060002125516858,3.797147930395632,0.7807493376259851,0.20561467499756786,-4.5426035404485425,2021-09-22 19:59:06,2021-09-22 19:59:06.000,-0.15702552,0.40974447,0.77805626,0.29283637,0.12587647,0.5274631,0.5656093000000001,-0.26651335,-0.1375935,0.67625344,0.76640826,0.34852849999999996,0.26075554,0.12053309,0.68930167,0.35092893,0.08660335,-0.1959773,0.30549526,0.0006725953999999999,681.3553,809.0842,782.49084,683.36993,853.4066,-0.274169921875,0.10491943359375,0.981201171875,1.8243408203125,-3.4393310546875,0.01495361328125,24.0,37.0,-13.0
921.4669051878357,50.429684945574685,,,,,,,27.05154787814462,27.157238061632643,0.054727613831442916,0.02935704768760016,923.0769230769232,34.21384615384618,0.03706500000000002,53.846153846153925,6.9767441860465125,39.53488372093023,9.214285714285714,210.9375,,,0.040545848460650034,0.010555754720583423,0.0007050857444445003,3.8411131684963062,0.7826373254391386,0.2037527381015749,-4.551084096630022,2021-09-22 19:59:07,2021-09-22 19:59:07.027,-0.17039369,0.6503711999999999,0.9509063,0.29283637,0.09959343,0.350724,0.67797315,-0.26651335,-0.19803299,0.48709774,0.76091915,0.34852849999999996,0.25868267,0.07524938,0.7475717,0.35092893,0.097037554,-0.23641376,0.2519338,0.0006725953999999999,795.38464,809.4872,811.0989,788.1319,716.0073,-0.274169921875,0.10791015625,0.9798583984375,1.876678466796875,-3.42437744140625,-0.11962890625,24.0,48.0,-24.0
921.5861657722122,50.41504438766334,,,,,,,27.05154787814462,27.157774191139325,0.054704645382149086,0.029353248651988694,923.0769230769232,34.21384615384618,0.03706500000000002,53.846153846153925,6.9767441860465125,39.53488372093023,9.214285714285714,210.9375,,,0.040852205939979416,0.010433805403503077,0.0007042906870363949,3.9153697390468465,0.7857658898768989,0.20068753202045864,-4.562704224785576,2021-09-22 19:59:08,2021-09-22 19:59:08.000,-0.17039369,0.61937445,0.73406905,0.29283637,0.09959343,0.05616339,0.42237502,-0.26651335,-0.19803299,0.11506559999999999,0.3486592,0.34852849999999996,0.25868267,-0.09080694,0.5163326,0.35092893,0.097037554,-0.10484853,0.22377574,0.0006725953999999999,780.87915,803.8461,795.38464,803.0403,890.87915,-0.27117919921875,0.11151123046875,0.9837646484375,1.846771240234375,-3.22998046875,0.216827392578125,26.0,53.0,-27.0
921.526535480024,50.42698457986275,,,,,,,27.05154787814462,27.157238061632636,0.054721142190002466,0.02935514804688012,923.0769230769232,34.21384615384618,0.03706500000000002,53.846153846153925,6.9767441860465125,39.53488372093023,9.214285714285714,210.9375,,,0.041196216981686115,0.01033192482062387,0.0007044721697112537,3.987274171745141,0.7887067839215006,0.19780600729954348,-4.572516680137396,2021-09-22 19:59:09,2021-09-22 19:59:09.002,-0.17039369,0.7362557,1.0964718,0.29283637,0.09959343,0.38768905,0.9085953999999999,-0.26651335,-0.19803299,0.26412418,0.8335111,0.34852849999999996,0.25868267,-0.009030698,0.67204875,0.35092893,0.097037554,-0.055049400000000005,0.31732550000000004,0.0006725953999999999,828.8278,787.7289400000003,789.34064,837.6923,738.97437,-0.2718505859375,0.10662841796875,0.98004150390625,1.5252685546875,-3.506622314453125,0.07476806640625,25.0,54.0,-29.0
921.3942307692308,50.630258741378974,,,,,,,27.123507638865696,27.23085999502209,0.054949615539821695,0.029437461982176182,923.0769230769232,34.21384615384618,0.03706500000000002,53.846153846153925,7.03125,39.84375,9.142857142857142,210.9375,,,0.04167881420608284,0.010199652914571393,0.0007053019292963393,4.0862973039543125,0.7926174741580647,0.19396960504832772,-4.585401587254073,2021-09-22 19:59:10,2021-09-22 19:59:10.012,-0.17039369,0.5798734,0.98821163,0.29283637,0.09959343,0.59507746,0.637966,-0.26651335,-0.19803299,0.35418525,0.8335111,0.34852849999999996,0.25868267,0.09363976,0.53466773,0.35092893,0.097037554,-0.11117531,0.37796292,0.0006725953999999999,790.14655,801.02563,809.0842,788.9377400000003,668.46155,-0.270751953125,0.10833740234375,0.978271484375,2.28790283203125,-3.12530517578125,0.396270751953125,24.0,49.0,-25.0
921.28801431127,50.46484756155553,,,,,,,27.05154787814462,27.156165770865712,0.054776407353222416,0.029362748085209407,923.0769230769232,34.21384615384618,0.03706500000000002,53.846153846153925,6.9767441860465125,39.53488372093023,9.214285714285714,195.3125,,,0.0420687315465778,0.010098321322527486,0.000706154875234963,4.165913343708944,0.7956530980680098,0.19099127428311646,-4.5953860746389665,2021-09-22 19:59:11,2021-09-22 19:59:11.001,0.6122407,0.2951514,0.71972936,0.49584863,0.25353867,0.09897639999999999,0.41404846,0.016870145,0.39823285,0.12172864,0.3173573,0.44309667,0.64416486,0.0034349703000000004,0.45314570000000004,0.54903924,0.061402727000000004,-0.21919993,0.20237866,-0.14798969,845.34796,805.8608,814.7253,853.00366,657.98535,-0.2716064453125,0.10650634765625,0.97528076171875,1.084136962890625,-3.30474853515625,0.321502685546875,23.0,43.0,-20.0
921.0494931425163,50.45575735533504,,,,,,,27.025902543375388,27.129680154103237,0.054780723219536996,0.029342508458656293,923.0769230769232,34.21384615384618,0.03706500000000002,53.846153846153925,6.9767441860465125,39.53488372093023,9.214285714285714,195.3125,,,0.042464392420150085,0.010015555330125952,0.0007075084626955242,4.239844024666386,0.7983911140648555,0.18830671822359726,-4.603615861563802,2021-09-22 19:59:12,2021-09-22 19:59:12.000,0.68346816,0.9210283000000001,0.7076883,0.6324044,0.3039122,0.15281056,0.5863455,0.038744397,0.39551726,0.17406864,0.3012187,0.38688156,0.61153597,-0.053897485,0.40197748,0.5502501999999999,-0.023680905,-0.3946066,-0.080806345,-0.14538968,776.4469,795.38464,783.2967,775.64105,708.7546,-0.32501220703125,0.09759521484375,0.9464111328125,5.465545654296875,0.351409912109375,-20.957489013671875,21.0,40.0,-19.0
920.6917113893857,50.384968158009755,,,,,,,26.991670860804238,27.09665426947315,0.054725124093900485,0.029316730591689582,923.0769230769232,34.21384615384618,0.03706500000000002,53.846153846153925,6.9767441860465125,39.53488372093023,9.214285714285714,195.3125,,,0.03952493532145962,0.009159622754657324,0.000653459372920753,4.31512698504561,0.8011050578245423,0.1856504016222074,-4.6929502851335565,2021-09-22 19:59:13,2021-09-22 19:59:13.044,0.26134339999999995,0.33117706,1.200863,1.0112101999999998,0.7092031999999999,-0.11403659,0.9876687,0.5986235,0.91978306,0.37074527,0.40529487,0.3571999,1.4099398,0.13494736,0.29588228,0.33640566,0.7298889000000001,-0.26969236,-0.335499,-0.054690924,834.0659,798.20514,799.0110000000003,829.6337,1061.7216,-0.223876953125,0.03009033203125,0.99176025390625,2.265472412109375,-2.280426025390625,3.48419189453125,26.0,40.0,-14.0
920.1550387596899,50.56260581254438,,,,,,,27.128338422434396,27.23252765284811,0.05495009393275674,0.02948235599405255,923.0769230769232,34.21384615384618,0.03706500000000002,53.846153846153925,6.9767441860465125,39.53488372093023,9.214285714285714,195.3125,,,0.03577008189641807,0.008213407468309241,0.0005886741704890673,4.355084297769713,0.8025206554794273,0.1842721289896517,-4.8019874028516485,2021-09-22 19:59:14,2021-09-22 19:59:14.000,0.26134339999999995,0.47340465,1.3125236999999998,1.0112101999999998,0.7092031999999999,0.40697023,1.0769228000000002,0.5986235,0.91978306,0.39683273,0.2882112,0.3571999,1.4099398,0.2541581,0.3188762,0.33640566,0.7298889000000001,-0.071263745,-0.33475932,-0.054690924,636.2271,777.25275,925.12823,637.03296,676.5201400000002,-0.25079345703125,0.08319091796875,0.9920654296875,2.213134765625,1.712188720703125,6.153411865234375,35.0,39.0,-4.0
919.4394752534288,51.27874355760632,,,,,,,27.399628555336555,27.50067239629826,0.05577174456586405,0.029800361299240814,923.0769230769232,34.21384615384618,0.03706500000000002,53.846153846153925,6.9767441860465125,40.31007751937985,9.214285714285714,195.3125,,,0.032405144721108024,0.007412108321938414,0.0005326017456289842,4.371920014335871,0.8031043702839507,0.1836960346141988,-4.904640356265055,2021-09-22 19:59:15,2021-09-22 19:59:15.001,0.26134339999999995,0.5813228,1.3125236999999998,1.0112101999999998,0.7092031999999999,0.46383855,1.0769228000000002,0.5986235,0.91978306,0.32243544,0.2882112,0.3571999,1.4099398,0.20337735,0.3188762,0.33640566,0.7298889000000001,0.07233155,-0.33475932,-0.054690924,879.59705,808.2784,848.9743699999997,903.3699300000001,812.71063,-0.64312744140625,0.0989990234375,0.77618408203125,0.059814453125,25.488433837890625,6.153411865234375,35.0,39.0,-4.0
918.6046511627907,52.46069318222181,,,,,,,27.50067239629826,27.599236221383514,0.057109109033811084,0.02993744083647659,923.0769230769232,34.21384615384618,0.03706500000000002,53.846153846153925,6.9767441860465125,41.08527131782946,9.214285714285714,195.3125,,,0.02882197129997944,0.00661773267174307,0.0004754840311486724,4.355263763229032,0.802500916817568,0.184260003628939,-5.018002464414164,2021-09-22 19:59:16,2021-09-22 19:59:16.009,0.26134339999999995,0.94478774,1.3125236999999998,1.0112101999999998,0.7092031999999999,0.6397566,1.0769228000000002,0.5986235,0.91978306,0.8648686999999999,0.2882112,0.3571999,1.4099398,0.42302105,0.3188762,0.33640566,0.7298889000000001,0.1608692,-0.33475932,-0.054690924,888.46155,795.38464,663.6264,855.82416,840.1098599999997,-0.57275390625,0.11395263671875,0.7794189453125,2.340240478515625,-4.77020263671875,-1.667327880859375,49.0,54.0,-5.0
917.4556213017752,53.39523660998742,,,,,,,26.997511892112474,27.102699638438068,0.0581992582204958,0.029426504416427014,923.0769230769232,39.91615384615382,0.04324249999999997,53.846153846153925,6.153846153846153,40.769230769230774,9.285714285714286,195.3125,,,0.02457391075456722,0.00570424641253693,0.00040891979169957205,4.3080030169380645,0.8007902084501823,0.18588431932421168,-5.166544396849353,2021-09-22 19:59:17,2021-09-22 19:59:17.019,0.26134339999999995,0.7420777,1.3125236999999998,1.0112101999999998,0.7092031999999999,0.36839890000000003,1.0769228000000002,0.5986235,0.91978306,0.54700834,0.2882112,0.3571999,1.4099398,0.054856494000000006,0.3188762,0.33640566,0.7298889000000001,-0.13861533,-0.33475932,-0.054690924,863.0769,798.60803,744.21246,848.9743699999997,726.4835,-0.48175048828125,0.10662841796875,0.822998046875,1.36077880859375,-28.8006591796875,-2.983245849609375,52.0,60.0,-8.0
917.396449704142,53.504785930561425,,,,,,,27.02298525386567,27.12807422868932,0.0583224253242059,0.029456169426620857,923.0769230769232,39.91615384615382,0.04324249999999997,53.846153846153925,6.153846153846153,40.769230769230774,9.285714285714286,195.3125,,,0.02397363808469777,0.0056660863103411814,0.0004049246054762239,4.2310753440065785,0.7979337047434536,0.18858886686424672,-5.173256644661033,2021-09-22 19:59:18,2021-09-22 19:59:18.001,0.26134339999999995,0.26500177,1.3125236999999998,1.0112101999999998,0.7092031999999999,0.09539579599999999,1.0769228000000002,0.5986235,0.91978306,0.32910925,0.2882112,0.3571999,1.4099398,0.21049516,0.3188762,0.33640566,0.7298889000000001,0.007547455,-0.33475932,-0.054690924,813.5165,801.8315,835.6777,795.78754,675.7143,-0.4715576171875,0.10333251953125,0.9302978515625,2.82623291015625,-3.050537109375,3.7982177734375,53.0,67.0,-14.0
917.3524150268337,54.632641079382715,,,,,,,27.255841890496868,27.34370892013741,0.059554692596284986,0.029711418909492488,923.0769230769232,34.21384615384618,0.03706500000000002,53.846153846153925,6.9767441860465125,40.31007751937985,9.214285714285714,195.3125,,,0.024175957560596147,0.0059021665363899675,0.00041950418401874915,4.096115792656583,0.7927159888578579,0.1935287059704269,-5.132435785917772,2021-09-22 19:59:19,2021-09-22 19:59:19.013,0.26134339999999995,-0.29116616,1.3125236999999998,1.0112101999999998,0.7092031999999999,-0.006159111,1.0769228000000002,0.5986235,0.91978306,0.27726117,0.2882112,0.3571999,1.4099398,0.5027048,0.3188762,0.33640566,0.7298889000000001,0.25395542,-0.33475932,-0.054690924,816.7399,809.4872,796.99634,816.7399,678.9377400000002,-0.527587890625,0.06982421875,0.85894775390625,4.179534912109375,1.936492919921875,-6.26556396484375,50.0,65.0,-15.0
915.2662721893493,57.38826355052041,,,,,,,27.149993560958272,27.236836652943662,0.0627011671841088,0.029663491801150424,923.0769230769232,39.91615384615382,0.04324249999999997,53.846153846153925,6.9230769230769225,40.0,9.285714285714286,195.3125,,,0.021028828061982214,0.005308964434078996,0.00037545435728871175,3.961003755646805,0.7872059947420856,0.19873901750783374,-5.2383584845782165,2021-09-22 19:59:20,2021-09-22 19:59:20.021,1.0106275,-0.28371579999999996,1.3125236999999998,1.0112101999999998,0.19072467,-0.28726876,1.0769228000000002,0.5986235,0.82425165,0.06910728,0.2882112,0.3571999,0.98741424,0.42748308,0.3188762,0.33640566,0.54292506,0.18979008,-0.33475932,-0.054690924,668.0586,785.7143,823.9927,673.2967,715.2015,-0.60345458984375,0.0975341796875,0.810546875,0.22430419921875,-6.280517578125,-1.353302001953125,56.99999999999999,57.99999999999999,-1.0
914.4378698224853,58.268955816771495,,,,,,,27.225914151002094,27.319206505324182,0.06372106595725625,0.02977338871178565,923.0769230769232,45.61846153846145,0.049419999999999915,53.846153846153925,6.9230769230769225,40.769230769230774,9.285714285714286,195.3125,,,0.0196083924216955,0.00514394870770544,0.0003624841207407667,3.811933892793852,0.7807497056578111,0.20481722076391576,-5.269934263382411,2021-09-22 19:59:21,2021-09-22 19:59:21.000,1.0507853,0.14174274,1.3125236999999998,1.0112101999999998,0.24722750000000002,0.002005756,1.0769228000000002,0.5986235,0.8093771,0.15888786,0.2882112,0.3571999,1.0436444,0.56724733,0.3188762,0.33640566,0.60337734,0.5643170999999999,-0.33475932,-0.054690924,819.5604,807.0696,816.7399,808.6813400000003,717.2161,-0.53228759765625,0.08319091796875,0.86566162109375,2.071075439453125,-3.372039794921875,1.09161376953125,63.0,44.0,19.0
913.7869822485206,58.8149265993489,,,,,,,27.268000919286603,27.363245247884056,0.06436393573327699,0.029840653728935018,923.0769230769232,45.61846153846145,0.049419999999999915,53.846153846153925,6.9230769230769225,41.53846153846154,9.285714285714286,195.3125,,,0.01878310263786041,0.005191248210036022,0.00036509106251060336,3.618224727060406,0.7717145983461992,0.2132854249142152,-5.260781107823411,2021-09-22 19:59:22,2021-09-22 19:59:22.003,1.0507853,0.13547216,1.3125236999999998,0.4422475,0.24722750000000002,-0.04308072,1.0769228000000002,0.5318683000000001,0.8093771,0.24290575,0.2882112,0.43004826,1.0436444,0.6004053,0.3188762,0.755325,0.60337734,0.42847446,-0.33475932,0.5823979,830.4396,797.3993,815.12823,824.7985,697.0696,-0.524658203125,0.0849609375,0.87689208984375,2.609405517578125,-3.3197021484375,0.904693603515625,70.0,32.0,38.0
913.2544378698224,59.04314298820315,,,,,,,27.36874510820257,27.467554281955856,0.06465136170147942,0.02996836803995228,923.0769230769232,45.61846153846145,0.049419999999999915,59.615384615384635,6.9230769230769225,42.307692307692314,10.0,195.3125,,,0.01819282825348621,0.005245510785521485,0.0003690333477144231,3.4682662942380285,0.7641678366669621,0.22033136208038728,-5.250382656647392,2021-09-22 19:59:23,2021-09-22 19:59:23.010,1.0507853,0.14605112,0.9012758,0.45993257,0.24722750000000002,0.029871395,0.55395395,0.55422586,0.8093771,0.24074557,0.16181982,0.5743973000000001,1.0436444,0.53487873,0.7906258,0.74124575,0.60337734,0.28943107,0.6516583,0.5847229,810.696,803.4432400000003,763.5531,802.6374,682.1612,-0.51812744140625,0.080078125,0.8753662109375,2.2430419921875,-3.39447021484375,-0.46356201171875,73.0,22.0,51.0
912.6627218934913,59.17387271439321,,,,,,,27.37712372315721,27.477337405836444,0.06483651769147078,0.029996978145834862,923.0769230769232,45.61846153846145,0.049419999999999915,61.53846153846154,6.9230769230769225,42.307692307692314,10.0,195.3125,,,0.017740341584989144,0.0053223978618498246,0.00037556283381831585,3.3331483375471307,0.7568953319468686,0.2270812023037262,-5.235831351263375,2021-09-22 19:59:24,2021-09-22 19:59:24.000,1.0507853,0.46904117,1.2594923,0.51113605,0.24722750000000002,0.30851468,0.9209176,0.58138376,0.8093771,0.35648224,0.10413712,0.5743973000000001,1.0436444,0.33685514,0.6970121,0.7389658,0.60337734,0.22128375,0.6893461,0.6042122,759.5238,799.81683,793.36993,772.01465,713.1868,-0.52252197265625,0.0810546875,0.876953125,2.370147705078125,-2.67669677734375,-1.21124267578125,69.0,22.0,47.0
911.0393423370523,60.011372284732744,,,,,,,27.570408892832535,27.66074170935649,0.06587132903699637,0.030262588684817158,923.0769230769232,45.61846153846162,0.04942000000000009,61.53846153846154,6.870229007633588,42.74809160305343,10.076923076923077,195.3125,,,0.016643490968408992,0.005204715839275329,0.0003698122353344439,3.1977713063248263,0.7490987804170879,0.2342565207635255,-5.258190172204669,2021-09-22 19:59:25,2021-09-22 19:59:25.002,1.0507853,0.47680290000000003,1.2594923,0.51113605,0.24722750000000002,0.24510697,0.9209176,0.58138376,0.8093771,0.35337007,0.10413712,0.5743973000000001,1.0436444,0.2880978,0.6970121,0.7389658,0.60337734,0.27832779999999996,0.6893461,0.6042122,822.7839,802.6374,824.7985,821.9780000000003,808.2784,-0.67547607421875,-0.11846923828125,0.750732421875,3.12530517578125,2.6318359375,-2.04864501953125,69.0,22.0,47.0
910.4521432765707,60.04147180221914,,,,,,,27.661060608914013,27.76647865611607,0.0659468729307831,0.03038167443855566,923.0769230769232,45.61846153846162,0.04942000000000009,61.53846153846154,6.870229007633588,42.74809160305343,10.076923076923077,210.9375,,,0.01619452502128289,0.005181327059038715,0.000371002355983014,3.1255554487786834,0.7446835618786062,0.2382563912502632,-5.262694066517932,2021-09-22 19:59:26,2021-09-22 19:59:26.028,1.0507853,0.46502113,1.2594923,0.51113605,0.24722750000000002,0.06802416,0.9209176,0.58138376,0.8093771,0.26745215,0.10413712,0.5743973000000001,1.0436444,0.47954398,0.6970121,0.7389658,0.60337734,0.42009142,0.6893461,0.6042122,741.39197,783.2967,1107.2528,846.9597,718.0219999999997,-0.73919677734375,-0.0380859375,0.69110107421875,22.80426025390625,13.570404052734375,-19.63409423828125,71.0,31.0,40.0
910.2172636523779,60.112493148947436,,,,,,,27.63636690310605,27.740988458929237,0.0660419171877024,0.03036238490161255,923.0769230769232,45.61846153846162,0.04942000000000009,65.38461538461547,6.870229007633588,42.74809160305343,10.076923076923077,210.9375,,,0.01710064924351865,0.005531738563461688,0.00040064070048019616,3.0913697470216834,0.7424403281565708,0.2401654893827759,-5.197253125251231,2021-09-22 19:59:27,2021-09-22 19:59:27.031,1.0507853,0.46502113,1.2594923,0.51113605,0.24722750000000002,0.06802416,0.9209176,0.58138376,0.8093771,0.26745215,0.10413712,0.5743973000000001,1.0436444,0.47954398,0.6970121,0.7389658,0.60337734,0.42009142,0.6893461,0.6042122,881.2088,740.58606,847.7655599999997,809.0842,825.6044,-0.77325439453125,-0.0225830078125,0.66339111328125,1.607513427734375,-3.8580322265625,0.814971923828125,73.0,39.0,34.0
909.9236641221374,60.14311977504338,,,,,,,27.644600589242287,27.74995401527645,0.06609688498767351,0.030381230513345125,923.0769230769232,45.61846153846162,0.04942000000000009,69.2307692307694,6.870229007633588,42.74809160305343,10.916666666666664,210.9375,,,0.017776188412715516,0.005707828625445817,0.0004175145605752947,3.114352160726809,0.7437259130981848,0.2388059778456841,-5.1659166033911745,2021-09-22 19:59:28,2021-09-22 19:59:28.029,1.0507853,0.46502113,1.2594923,0.51113605,0.24722750000000002,0.06802416,0.9209176,0.58138376,0.8093771,0.26745215,0.10413712,0.5743973000000001,1.0436444,0.47954398,0.6970121,0.7389658,0.60337734,0.42009142,0.6893461,0.6042122,842.9304,823.5897,838.9011,833.663,743.4066,-0.764404296875,-0.02105712890625,0.67071533203125,1.65985107421875,-2.9608154296875,0.46356201171875,78.0,39.0,39.0
909.8649442160893,60.133933425041505,,,,,,,27.644600589242287,27.75097120038245,0.06609105429031667,0.030383191225220794,923.0769230769232,45.61846153846162,0.04942000000000009,69.2307692307694,6.870229007633588,42.74809160305343,11.909090909090908,195.3125,,,0.01851831244622837,0.005812924010519932,0.00042968665113044636,3.1857138357072747,0.7478845746399485,0.23476200726419205,-5.147671562682802,2021-09-22 19:59:29,2021-09-22 19:59:29.003,1.0507853,0.34724215,1.2594923,0.51113605,0.24722750000000002,0.30142543,0.9209176,0.58138376,0.8093771,0.5047497999999999,0.10413712,0.5743973000000001,1.0436444,1.0223445,0.6970121,0.7389658,0.60337734,1.2674124,0.6893461,0.6042122,705.9341,807.0696,779.67035,695.4579,727.6923,-0.762939453125,-0.01983642578125,0.67218017578125,1.831817626953125,-3.297271728515625,0.770111083984375,78.0,39.0,39.0
910.4733727810652,60.14373443244927,,,,,,,27.510834524561186,27.615753980218766,0.06605765333777817,0.030215968250151687,923.0769230769232,45.61846153846162,0.04942000000000009,67.30769230769249,6.9230769230769225,42.307692307692314,11.818181818181818,195.3125,,,0.019613467447816724,0.005931279155367164,0.00044291861333188733,3.3067854225118816,0.754722183944093,0.2282343991255396,-5.1275153800662245,2021-09-22 19:59:30,2021-09-22 19:59:30.014,1.0507853,0.44779277,1.2594923,0.51113605,0.24722750000000002,0.32764593,0.9209176,0.58138376,0.8093771,0.3575072,0.10413712,0.5743973000000001,1.0436444,0.7744698,0.6970121,0.7389658,0.60337734,0.96728706,0.6893461,0.6042122,822.7839,815.9341,809.4872,790.14655,681.75824,-0.75830078125,-0.0145263671875,0.67926025390625,1.435546875,-3.895416259765625,0.291595458984375,79.0,42.0,37.0
910.828402366864,60.03451565857942,,,,,,,27.301623621231705,27.407997729234268,0.06591199341453857,0.02997449744681452,923.0769230769232,45.61846153846162,0.04942000000000009,61.53846153846154,6.9230769230769225,41.53846153846154,11.818181818181818,234.375,,,0.021431614515224847,0.0060748608483946155,0.0004590345256279745,3.527918589425552,0.7663587969645841,0.2172268938579361,-5.103596195631917,2021-09-22 19:59:31,2021-09-22 19:59:31.001,1.0507853,-0.1395099,0.49240625,0.89774233,0.24722750000000002,-0.014547393999999996,0.038290437000000004,0.5858645,0.8093771,0.22665500000000002,0.19423828,0.7444743,1.0436444,0.83507377,0.9483985999999999,1.1381142,0.60337734,0.8226239,0.8903120000000001,0.8303424999999999,753.4798599999997,796.99634,826.4103,788.5348,782.8938,-0.7523193359375,-0.01788330078125,0.68359375,1.9140625,-3.521575927734375,0.1495361328125,78.0,43.0,35.0
910.7457428068117,59.8106509233232,,,,,,,27.079007450703372,27.182139689322753,0.06567217183908408,0.02973278509899925,923.0769230769232,45.61846153846162,0.04942000000000009,61.53846153846154,6.870229007633588,40.45801526717558,11.909090909090908,234.375,,,0.022891320729647262,0.006089422241449072,0.00046349905201495926,3.759194193142356,0.7774464260849191,0.20681198845836749,-5.101202071801981,2021-09-22 19:59:32,2021-09-22 19:59:32.000,0.5804328000000001,0.18325292,0.72252136,0.91629535,0.48588505,0.044826407,0.44934472,0.5445339,1.0159922,0.20800103,0.2771013,0.7716104,1.1938736,1.0278664,0.9044206,0.97136414,1.0967383,0.8113064999999999,0.8327549000000001,0.9046790000000001,661.6117,807.47253,741.79486,603.1868,1046.4103,-0.7447509765625,-0.01678466796875,0.69281005859375,1.667327880859375,-3.93280029296875,-0.0,80.0,44.0,36.0
910.2172636523779,59.86970185245058,,,,,,,27.20478150160081,27.30356212923656,0.06577517724967638,0.029888228435085595,915.3846153846154,45.61846153846162,0.04983529411764715,65.38461538461547,6.870229007633588,41.22137404580153,11.909090909090908,234.375,,,0.024665930896752862,0.005997892059386406,0.00045946914674056447,4.112433276979684,0.7925231950147885,0.1927139339745946,-5.116347194918218,2021-09-22 19:59:33,2021-09-22 19:59:33.002,0.62909925,0.39747965,0.8368339,1.0788984,0.23424692,0.4547044,0.6025133,0.38935608,0.6898562,0.6581949,0.3047984,0.40470457,1.1912636,0.88774776,0.7566041,0.85612404,1.0434828999999999,0.755059,0.79550594,0.93004674,810.696,793.36993,797.3993,814.3223,713.5897,-0.73822021484375,-0.01953125,0.690673828125,1.891632080078125,-2.99072265625,0.321502685546875,82.0,47.0,35.0
909.5126247798004,59.98658673517931,,,,,,,27.229866598218212,27.32739452999845,0.06595464988702328,0.02993896495368688,915.3846153846154,45.61846153846162,0.04983529411764715,69.2307692307694,6.870229007633588,41.22137404580153,11.909090909090908,210.9375,,,0.02571147561708605,0.005902323956769701,0.00045318669026074153,4.356161370572711,0.8018051776152607,0.18406232217009127,-5.132409114647236,2021-09-22 19:59:34,2021-09-22 19:59:34.038,0.62909925,0.343981,0.90651745,1.1056625,0.23424692,0.50035167,0.68751144,0.41122955,0.6898562,0.61690086,0.29706305,0.36112943,1.1912636,0.7557979,0.5770219,0.8380633,1.0434828999999999,0.6644424,0.8525419,0.9131459000000001,819.9634,803.0403,811.5018299999997,826.0073,835.2747,-0.73504638671875,-0.0162353515625,0.69354248046875,1.757049560546875,-4.844970703125,0.418701171875,74.0,48.0,26.0
908.984145625367,60.03452709916002,,,,,,,27.188045245632537,27.28391220792246,0.06604573620792605,0.029910362437540187,915.3846153846154,57.02307692307691,0.06229411764705881,69.2307692307694,6.870229007633588,40.45801526717558,11.909090909090908,210.9375,,,0.026622659869468632,0.005535940433496012,0.0004254706082627625,4.8090582240344135,0.8170452348326842,0.1698971392671659,-5.19649382057003,2021-09-22 19:59:35,2021-09-22 19:59:35.000,0.6904194,0.11070469,0.18432765,0.6712795,0.7115151,0.0034358604,-0.029404313999999997,0.39901403,0.97782165,0.124749415,0.097819835,0.15717052,0.90498894,0.876381,0.9802700999999999,0.7835725,0.7990826,0.8509763000000001,0.9709357,0.8721701999999999,790.9524,824.3956,812.3077,827.6189999999997,687.3993,-0.73553466796875,-0.01129150390625,0.7103271484375,2.250518798828125,-3.48419189453125,0.3289794921875,74.0,48.0,26.0
908.6318261890782,59.8589063302875,,,,,,,27.354947029584107,27.45434404498497,0.06587806480579013,0.03010564481800551,915.3846153846154,45.61846153846162,0.04983529411764715,69.2307692307694,6.870229007633588,40.45801526717558,10.916666666666664,210.9375,,,0.02691053005314352,0.005169024963243011,0.000396189453365881,5.206113385890873,0.8286347393269992,0.15916571113735026,-5.265071203365501,2021-09-22 19:59:36,2021-09-22 19:59:36.013,0.87745047,0.47718766,0.7244071999999999,1.0359440999999998,0.89908457,0.22475268,0.48597354,0.9402472,1.1302831,0.34879306,0.668136,1.0585649,0.93905634,0.678212,0.94102657,0.79713213,0.83731824,0.8357181,0.8937956,0.9074803,430.7326,778.46155,822.3810000000003,867.9121,650.32965,-0.7105712890625,0.062744140625,0.74468994140625,-10.116119384765623,-24.03045654296875,44.62158203125,68.0,48.0,20.0
908.1620669406927,59.437169966209076,,,,,,,27.37989454688003,27.482667992914205,0.06544775666135656,0.030148687710679363,915.3846153846154,45.61846153846162,0.04983529411764715,65.38461538461547,6.870229007633588,40.45801526717558,10.916666666666664,210.9375,,,0.026611139910761063,0.00464242614138514,0.0003529029942773645,5.732162257474537,0.8419523190545151,0.14688215044098565,-5.372518174097109,2021-09-22 19:59:37,2021-09-22 19:59:37.003,1.0350269,0.84496856,0.6540321,1.268987,1.0569651000000002,0.39115804,0.33529717,1.2168281,1.1026652,0.47787225,0.44077668,1.0538828000000002,0.97819537,0.61113673,1.0183791,0.81350714,0.88081646,0.6814680000000001,0.844015,0.94792795,873.1502,803.8461,589.0842,829.6337,763.95605,-0.4625244140625,0.11663818359375,0.9024658203125,-9.58526611328125,-1.60003662109375,19.342498779296875,63.0,42.0,21.0
907.5748678802116,59.05479686754751,,,,,,,27.04536891914567,27.149408733583325,0.06506878821521311,0.02979960097651725,915.3846153846154,45.61846153846162,0.04983529411764715,61.53846153846154,6.106870229007633,40.45801526717558,10.916666666666664,210.9375,,,0.02602418687104044,0.004223110028933994,0.00031741169001731496,6.162327453639543,0.8514456074206421,0.13816948447258645,-5.467183448684927,2021-09-22 19:59:38,2021-09-22 19:59:38.013,1.0350269,0.42103943,0.6540321,1.268987,1.0569651000000002,0.12983188,0.33529717,1.2168281,1.1026652,0.39409286,0.44077668,1.0538828000000002,0.97819537,0.27052358,1.0183791,0.81350714,0.88081646,0.32371482,0.844015,0.94792795,817.1429,802.2344400000003,794.9817,818.7546,935.2015,-0.5670166015625,0.0362548828125,0.8631591796875,-0.904693603515625,2.863616943359375,0.485992431640625,66.0,41.0,25.0
906.9289489136818,59.26153786115921,,,,,,,27.570408892832535,27.667884178469794,0.06534308771612439,0.03039974512430807,915.3846153846154,45.61846153846162,0.04983529411764715,61.53846153846154,6.870229007633588,41.22137404580153,10.916666666666664,210.9375,,,0.02560388993789937,0.00382718236720509,0.0002819743165930392,6.690010425763263,0.8617053062206863,0.12880477777766308,-5.565626420889741,2021-09-22 19:59:39,2021-09-22 19:59:39.019,1.0350269,0.77003753,0.6540321,1.268987,1.0569651000000002,0.20304193,0.33529717,1.2168281,1.1026652,0.59262145,0.44077668,1.0538828000000002,0.97819537,0.55588716,1.0183791,0.81350714,0.88081646,0.7467748000000001,0.844015,0.94792795,772.01465,793.7729,796.5934,786.9231,863.4798599999997,-0.60601806640625,0.02203369140625,0.80914306640625,-10.893707275390623,-5.562744140625,29.56329345703125,62.0,43.0,19.0
905.9894304169113,59.73153469476698,,,,,,,27.70216786982946,27.793088075931106,0.06592961538997225,0.030576700941292088,915.3846153846154,45.61846153846162,0.04983529411764715,65.38461538461536,6.870229007633588,41.984732824427475,10.916666666666664,210.9375,,,0.024870364529457317,0.003506483433630544,0.0002536398788046161,7.092679888610518,0.8686671588273357,0.12247375779953755,-5.653141614472863,2021-09-22 19:59:40,2021-09-22 19:59:40.047,1.0350269,0.8252581,0.6540321,1.268987,1.0569651000000002,0.38870066,0.33529717,1.2168281,1.1026652,0.5704781999999999,0.44077668,1.0538828000000002,0.97819537,0.6018956,1.0183791,0.81350714,0.88081646,0.64539194,0.844015,0.94792795,875.16486,833.2601,888.46155,815.9341,611.6484,-0.51263427734375,0.12884521484375,0.8472900390625,36.22512817382813,-24.57626342773437,-54.132080078125,59.0,49.0,10.0
905.1282051282053,59.657594336048774,,,,,,,27.84066737410555,27.941324837810093,0.06591065663189524,0.030758810979889983,915.3846153846154,57.02307692307691,0.06229411764705881,69.23076923076917,6.8181818181818175,43.18181818181818,11.0,210.9375,,,0.023919578620639287,0.003205101300135679,0.00022702796454025567,7.46297117648878,0.8745186487415435,0.11718102992232003,-5.743011582202383,2021-09-22 19:59:41,2021-09-22 19:59:41.041,1.0350269,0.501753,0.6540321,1.268987,1.0569651000000002,0.36164913,0.33529717,1.2168281,1.1026652,0.49216628,0.44077668,1.0538828000000002,0.97819537,0.6365010999999999,1.0183791,0.81350714,0.88081646,0.54664886,0.844015,0.94792795,798.20514,809.8901400000003,805.4579,846.1539,743.4066,-0.43121337890625,0.071044921875,0.92462158203125,2.8411865234375,0.022430419921875,1.024322509765625,51.0,55.00000000000001,-4.000000000000006
904.697592483852,59.726066515963105,,,,,,,27.84147857054441,27.94911982959034,0.06601771355662048,0.03077434802728443,915.3846153846154,57.02307692307691,0.06229411764705881,65.38461538461536,6.870229007633588,43.51145038167939,11.909090909090908,234.375,,,0.022884589679085018,0.0029147121455938745,0.00020073673635620314,7.85140642916636,0.8801752207160556,0.11210414702853563,-5.837984213423174,2021-09-22 19:59:42,2021-09-22 19:59:42.000,0.24632326,-0.7690585999999999,-0.04579663,1.268987,0.028620213,-0.23621303,-0.3544394,1.2168281,0.40804318,0.39927640000000003,0.035791643,1.0538828000000002,1.0037605,0.50395167,0.77266526,0.81350714,1.1218110000000001,0.29534152,0.8040202,0.94792795,792.1612,804.2491,790.9524,824.7985,766.3736,-0.4222412109375,0.0855712890625,0.92718505859375,2.67669677734375,-4.493560791015625,0.605621337890625,45.0,59.0,-14.0
904.3452730475633,59.88989469982666,,,,,,,28.20692122685249,28.31205156463883,0.06622458974988947,0.031190433640237512,915.3846153846154,57.02307692307691,0.06229411764705881,69.23076923076917,7.633587786259542,44.274809160305345,11.909090909090908,234.375,,,0.022494160502771848,0.002784642925828753,0.0001872818803113321,8.077933545492995,0.8832987178794987,0.10934711370240556,-5.88363562716987,2021-09-22 19:59:43,2021-09-22 19:59:43.021,0.24632326,-0.30630684,-0.20611674,1.268987,0.028620213,-0.19116563,-0.49430534,1.2168281,0.40804318,0.47823957,0.0067443005000000006,1.0538828000000002,1.0037605,0.5301651999999999,0.76710486,0.81350714,1.1218110000000001,0.3935079,0.82242286,0.94792795,788.5348,802.6374,800.6227,808.2784,784.5055,-0.42437744140625,0.09954833984375,0.92633056640625,2.235565185546875,-3.54400634765625,0.007476806640625,41.0,63.0,-22.0
903.6993540810333,60.22527233176906,,,,,,,28.27944306945625,28.38132123203621,0.0666430401436015,0.031292976963797264,915.3846153846154,57.02307692307691,0.06229411764705881,73.076923076923,7.633587786259542,45.038167938931295,11.909090909090908,234.375,,,0.021742178256099576,0.002648031334228097,0.00017375105306776902,8.210695234253125,0.8851251055047362,0.1078014809041016,-5.9339388078096755,2021-09-22 19:59:44,2021-09-22 19:59:44.020,0.37775317,-0.46222383,0.38146529999999995,0.54694015,0.42070806,-0.51909465,0.119684815,0.35715443,0.71565187,0.30719376,0.34588143,0.6674538000000001,0.66726077,0.49381238,0.6100653,0.47457042,0.652775,0.25020418,0.5806579000000001,0.3364557,801.02563,803.4432400000003,791.75824,814.7253,797.8022,-0.40771484375,0.12249755859375,0.92840576171875,1.854248046875,-4.344024658203125,0.052337646484375,39.0,62.0,-23.0
903.2883147386964,60.32856882919353,,,,,,,28.39990127365251,28.505805253068413,0.06678772197628327,0.031440571974927015,915.3846153846154,57.02307692307708,0.062294117647058986,73.076923076923,7.633587786259542,45.80152671755725,11.909090909090908,234.375,,,0.02086896580685669,0.002535390816188189,0.00016140901379134166,8.231064683839138,0.8855628172010632,0.1075878821532986,-5.977407485700099,2021-09-22 19:59:45,2021-09-22 19:59:45.047,0.5530042,-0.23848876,0.38452867,0.72722745,0.45088884,-0.25601456,0.17180888,0.20645586,0.84677625,0.29947670000000004,0.49730876,0.6867012,0.62130016,0.30289978,0.60306615,0.44428965,0.5610568,0.17325442,0.5608564,0.33712020000000004,776.4469,798.60803,776.8498,790.54944,779.2674,-0.40545654296875,0.11163330078125,0.9317626953125,1.9140625,-3.90289306640625,-0.127105712890625,47.0,75.0,-28.0
903.1708749266,60.304720288195064,,,,,,,28.48791357479947,28.59756346815584,0.06677000107326975,0.03154210832708114,907.6923076923076,57.02307692307691,0.06282203389830507,73.076923076923,7.633587786259542,45.80152671755725,10.916666666666664,210.9375,,,0.02006588915911833,0.002468439173244302,0.0001537920421836371,8.128978577481197,0.8844227211360437,0.10879875161512437,-6.004169241750118,2021-09-22 19:59:46,2021-09-22 19:59:46.042,0.9110173,0.382177,0.35635668,1.2827666000000002,0.8713506,0.18096805,0.0610987,1.1405054,1.1599389,0.40745467,0.28557512,1.3784341,0.6796941999999999,0.41633496,0.59416324,0.5266897,0.48916656,0.20732089999999997,0.56472784,0.17442112,829.2308,796.1905,801.02563,812.71063,779.2674,-0.408203125,0.11651611328125,0.92486572265625,1.786956787109375,-2.983245849609375,0.16448974609375,49.0,85.0,-36.0
903.6406341749852,60.39867732302789,,,,,,,28.655186418756266,28.7638306671016,0.06683926667172428,0.03171082102225091,915.3846153846154,57.02307692307708,0.062294117647058986,76.9230769230768,7.633587786259542,46.564885496183216,10.916666666666664,234.375,,,0.01982263659596678,0.0024997603388416828,0.0001529242265783329,7.92981482582927,0.8819734522869734,0.11122245243535556,-5.9915604161666,2021-09-22 19:59:47,2021-09-22 19:59:47.001,0.6628645000000001,0.17599583,0.35635668,0.89399385,0.5006593,0.09502955,0.0610987,0.7538577,0.48221759999999997,0.45579904,0.28557512,0.9752617,0.5916537,0.38692254,0.59416324,0.4757719,0.6787966,0.39591223,0.56472784,0.29971695,845.34796,799.0110000000003,783.2967,855.42126,726.4835,-0.40838623046875,0.1070556640625,0.92938232421875,1.734619140625,-3.78326416015625,-0.4486083984375,50.0,91.0,-41.0
904.1691133294188,60.66885232329288,,,,,,,28.527829404345532,28.637203253007907,0.06709900994062072,0.03155143101415797,915.3846153846154,57.02307692307708,0.062294117647058986,76.9230769230768,7.633587786259542,46.564885496183216,10.916666666666664,210.9375,,,0.019572044112790232,0.002587101508977862,0.0001555038810389526,7.565240113258233,0.8770939516808539,0.11593735804151535,-5.957217138442951,2021-09-22 19:59:48,2021-09-22 19:59:48.000,0.21153244,0.5571784000000001,0.35635668,0.10914049,0.120906405,0.04896694,0.0610987,0.28368732,0.25050998,0.22708094,0.28557512,0.26159596,0.6726724000000001,0.38683257,0.59416324,0.6561286,0.77437633,0.47601503,0.56472784,0.25399238,819.9634,797.8022,711.5751,818.3516,772.01465,-0.4041748046875,0.1109619140625,0.93560791015625,1.83929443359375,-4.000091552734375,-0.964508056640625,48.0,94.0,-46.0
904.4627128596594,60.92859187333961,,,,,,,28.335720623765567,28.445336973597087,0.0673644043110416,0.03132878804276619,915.3846153846154,57.02307692307708,0.062294117647058986,80.76923076923072,7.633587786259542,45.80152671755725,10.916666666666664,210.9375,,,0.01935445350773824,0.0026871589254789585,0.0001600787797797968,7.202571207911906,0.8717558190525608,0.1210339743805589,-5.919270805031985,2021-09-22 19:59:49,2021-09-22 19:59:49.001,0.60527456,0.52575475,0.35635668,0.91199636,0.28126540000000005,0.089212,0.0610987,0.077021584,0.6534776999999999,0.11263553,0.28557512,0.7227874,0.70398796,0.24542445,0.59416324,0.641934,0.0019285872,0.25530443,0.56472784,0.06314432,780.4762,795.78754,823.9927,786.1172,719.2308,-0.40203857421875,0.11297607421875,0.9267578125,0.336456298828125,-4.2169189453125,2.3028564453125,46.0,86.0,-40.0
904.1375291375293,60.40803561986914,,,,,,,28.553516611782136,28.65579268141454,0.06681288374069963,0.03158094392898366,915.3846153846154,57.02307692307708,0.062294117647058986,76.9230769230768,7.575757575757576,46.96969696969697,10.153846153846152,210.9375,,,0.018843028233726498,0.002771246301352481,0.0001640769293710634,6.799477991014488,0.8652183001309798,0.12724775361790508,-5.8884581316841755,2021-09-22 19:59:50,2021-09-22 19:59:50.008,0.6579844,-0.15532434,0.35635668,0.91199636,-0.009031808,0.016860108999999998,0.0610987,0.077021584,0.55736303,0.2711734000000001,0.28557512,0.7227874,0.7351128,0.5404819000000001,0.59416324,0.641934,-0.060014445,0.4441297000000001,0.56472784,0.06314432,784.90845,791.75824,897.7289400000003,789.34064,967.03296,-0.5765380859375,0.0731201171875,0.84368896484375,-0.70281982421875,17.906951904296875,0.725250244140625,50.0,82.0,-32.0
903.6713286713288,59.95817315219199,,,,,,,28.115125354959755,28.223053296359343,0.0663495357768501,0.03111211395441474,915.3846153846154,57.02307692307699,0.0622941176470589,76.9230769230768,6.8181818181818175,46.96969696969697,10.153846153846152,210.9375,,,0.01798282667954819,0.0028184243392425576,0.0001662563232060923,6.380453939870892,0.8576520988515173,0.13441866471163208,-5.871577295137692,2021-09-22 19:59:51,2021-09-22 19:59:51.000,0.65168136,0.034790058,0.35635668,0.9254343,0.00420021,-0.11571479,0.0610987,0.07848968,0.5329941999999999,0.22991559,0.28557512,0.7058438,0.72632277,0.76919043,0.59416324,0.6299516,-0.10311372,0.70544434,0.56472784,0.07812172,793.36993,796.1905,886.8498,800.6227,870.7326,-0.736328125,0.07537841796875,0.63427734375,1.099090576171875,-1.891632080078125,12.508697509765625,59.0,64.0,-5.0
903.7878787878788,60.02616389146948,,,,,,,28.14723858684976,28.25504386315978,0.06641620816155885,0.031143633641778443,915.3846153846154,57.02307692307699,0.0622941176470589,76.9230769230768,6.8181818181818175,46.96969696969697,10.153846153846152,218.75,,,0.01749470546431069,0.002975975301644584,0.0001750477944594713,5.878646054166769,0.8473765124401715,0.14414484298464494,-5.817183461224297,2021-09-22 19:59:52,2021-09-22 19:59:52.021,0.65168136,0.034790058,0.35635668,0.9254343,0.00420021,-0.11571479,0.0610987,0.07848968,0.5329941999999999,0.22991559,0.28557512,0.7058438,0.72632277,0.76919043,0.59416324,0.6299516,-0.10311372,0.70544434,0.56472784,0.07812172,838.4981700000003,762.3443,747.4359,862.2710599999997,883.6264,-0.818359375,0.22216796875,0.55865478515625,1.973876953125,-3.72344970703125,-1.054229736328125,65.0,62.0,3.0
903.9044289044288,60.0938499353744,,,,,,,28.07493216020605,28.181164683607374,0.0664825262646525,0.03105962451609412,915.3846153846154,57.02307692307699,0.0622941176470589,76.9230769230768,6.8181818181818175,46.21212121212121,10.153846153846152,218.75,,,0.01715844251628518,0.0031083234836260915,0.00018233108238445512,5.520159856807624,0.8390806913005707,0.15200296967229882,-5.773671770932008,2021-09-22 19:59:53,2021-09-22 19:59:53.001,0.65168136,0.3656893,0.35635668,0.9254343,0.00420021,0.23883400000000002,0.0610987,0.07848968,0.5329941999999999,0.32236558,0.28557512,0.7058438,0.72632277,0.8589199000000001,0.59416324,0.6299516,-0.10311372,0.82095927,0.56472784,0.07812172,664.83514,848.5714,795.38464,645.8974599999998,757.9121,-0.808837890625,0.21112060546875,0.56927490234375,1.54022216796875,-3.701019287109375,0.127105712890625,66.0,62.0,4.0
904.1103934233704,60.42858392392733,,,,,,,28.142300474778978,28.24892038834005,0.06683761669315337,0.031127062225465088,915.3846153846154,57.02307692307708,0.062294117647058986,76.9230769230768,6.870229007633588,46.564885496183216,10.916666666666664,234.375,,,0.016867362665506924,0.003274548969921017,0.00019137620850677025,5.151049143086649,0.8295442820152841,0.16104375224776027,-5.7215751384871565,2021-09-22 19:59:54,2021-09-22 19:59:54.015,0.65168136,0.29053408,0.35635668,0.9254343,0.00420021,0.13647918,0.0610987,0.07848968,0.5329941999999999,0.35675433,0.28557512,0.7058438,0.72632277,0.7982642,0.59416324,0.6299516,-0.10311372,0.6893307,0.56472784,0.07812172,792.1612,797.8022,820.3663,800.6227,813.91943,-0.8187255859375,0.2069091796875,0.56378173828125,1.951446533203125,-3.162689208984375,0.037384033203125,66.0,61.0,5.0
904.4627128596594,60.538880313080426,,,,,,,28.069424304605715,28.17744700003584,0.06693352799660844,0.031034363169995145,915.3846153846154,57.02307692307708,0.062294117647058986,76.9230769230768,6.870229007633588,45.80152671755725,10.916666666666664,234.375,,,0.01675990236309799,0.0034006795871852733,0.00019769322359105345,4.9283979667634865,0.8232476582596692,0.1670416358036731,-5.68377998874918,2021-09-22 19:59:55,2021-09-22 19:59:55.008,0.65168136,0.10104177,0.044646643,0.9254343,0.00420021,0.10539606,0.01594918,0.07848968,0.5329941999999999,0.3854754,0.38382497,0.7058438,0.72632277,0.67596245,1.0009341999999999,0.6299516,-0.10311372,0.73381704,0.9443119000000001,0.07812172,814.3223,808.2784,791.75824,816.337,948.0952,-0.81365966796875,0.206298828125,0.56671142578125,1.786956787109375,-3.327178955078125,-0.0299072265625,57.99999999999999,67.0,-9.000000000000009
904.7563123899,60.72283462387496,,,,,,,27.438017208751567,27.531604097952066,0.06711512679417125,0.03032641699539455,915.3846153846154,57.02307692307708,0.062294117647058986,76.9230769230768,6.106870229007633,45.038167938931295,10.916666666666664,203.125,,,0.01654309075333519,0.0034671237786513477,0.00019996353224758484,4.771416254360028,0.8185524492043659,0.1715533513674035,-5.6644299109692335,2021-09-22 19:59:56,2021-09-22 19:59:56.020,0.65168136,0.091928795,0.42358842,0.9254343,0.00420021,-0.017688459,0.30785096,0.07848968,0.5329941999999999,0.234492,0.43167844,0.7058438,0.72632277,0.6986864,0.9921056999999999,0.6299516,-0.10311372,0.600908,0.88785833,0.07812172,816.7399,814.3223,799.41394,832.8571,856.6300699999997,-0.817626953125,0.205322265625,0.56500244140625,1.57012939453125,-3.671112060546875,0.336456298828125,57.99999999999999,61.0,-3.0000000000000067
905.1673517322372,60.55758777054874,,,,,,,27.54563392102387,27.65213003112341,0.06690209015455369,0.03043153718294107,915.3846153846154,57.02307692307708,0.062294117647058986,76.9230769230768,6.870229007633588,45.038167938931295,10.076923076923077,203.125,,,0.016536821167087438,0.0035413814973034204,0.0002013075344106904,4.6695960826811165,0.8154448014264521,0.17462855180361822,-5.643238374489992,2021-09-22 19:59:57,2021-09-22 19:59:57.006,0.65168136,0.06428297,0.42985564,0.9254343,0.00420021,0.07456405,0.21747528,0.07848968,0.5329941999999999,0.24123344,0.4710934,0.7058438,0.72632277,0.6677036,1.0000532,0.6299516,-0.10311372,0.56587076,0.9340084000000001,0.07812172,810.696,805.8608,819.5604,806.6667,751.0622599999997,-0.81561279296875,0.20660400390625,0.5721435546875,1.846771240234375,-3.45428466796875,0.179443359375,63.0,51.0,12.0
905.1086318261888,60.56636565857124,,,,,,,27.54563392102387,27.65213003112341,0.06691612866001481,0.03043351146198499,915.3846153846154,57.02307692307708,0.062294117647058986,76.9230769230768,6.870229007633588,45.038167938931295,10.076923076923077,203.125,,,0.01648472763564628,0.0035421279044780514,0.0001985186862951057,4.653905245715676,0.8150517983550124,0.17513287343040307,-5.643027629466572,2021-09-22 19:59:58,2021-09-22 19:59:58.033,0.30749205,0.07936337,0.20893319,0.31164595,-0.1461044,0.035686273,0.05741565,0.014502173,0.19720243,0.5123384,0.37769917,0.01156927,0.55329365,0.65054476,0.94633216,0.38612705,0.4826489000000001,0.59612066,0.7754249,0.36538494,800.2198,813.5165,788.5348,802.2344400000003,700.293,-0.81402587890625,0.2083740234375,0.567626953125,1.79443359375,-3.828125,0.022430419921875,70.0,39.0,31.0
905.3435114503816,60.5459393272769,,,,,,,27.54563392102387,27.65213003112341,0.06687620617093823,0.03042561588241253,915.3846153846154,57.02307692307708,0.062294117647058986,76.9230769230768,6.870229007633588,45.038167938931295,10.076923076923077,203.125,,,0.016467831932078555,0.0035102543902132788,0.00019367364357011376,4.691349999587349,0.8163805220738397,0.17401825106752825,-5.652066768286371,2021-09-22 19:59:59,2021-09-22 19:59:59.000,0.29814658,0.22175209,0.34425277,0.28663540000000004,-0.19686383,0.2614758,-0.071752705,0.03817306,0.18780048,0.5338608,0.33222035,-0.08283512,0.52278346,0.6370412,0.86985934,0.37132686,0.45427683,0.62352324,0.6761934000000001,0.35646665,807.47253,803.4432400000003,810.293,809.0842,721.6484,-0.817626953125,0.211181640625,0.56707763671875,1.80938720703125,-4.000091552734375,-0.1495361328125,73.0,31.0,42.0
