HRV_MeanNN,HRV_SDNN,HRV_SDANN1,HRV_SDNNI1,HRV_SDANN2,HRV_SDNNI2,HRV_SDANN5,HRV_SDNNI5,HRV_RMSSD,HRV_SDSD,HRV_CVNN,HRV_CVSD,HRV_MedianNN,HRV_MadNN,HRV_MCVNN,HRV_IQRNN,HRV_pNN50,HRV_pNN20,HRV_HTI,HRV_TINN,HRV_ULF,HRV_VLF,HRV_LF,HRV_HF,HRV_VHF,HRV_LFHF,HRV_LFn,HRV_HFn,HRV_LnHF,Time,TimeStamp,Delta_TP9,Delta_AF7,Delta_AF8,Delta_TP10,Theta_TP9,Theta_AF7,Theta_AF8,Theta_TP10,Alpha_TP9,Alpha_AF7,Alpha_AF8,Alpha_TP10,Beta_TP9,Beta_AF7,Beta_AF8,Beta_TP10,Gamma_TP9,Gamma_AF7,Gamma_AF8,Gamma_TP10,RAW_TP9,RAW_AF7,RAW_AF8,RAW_TP10,AUX_RIGHT,Accelerometer_X,Accelerometer_Y,Accelerometer_Z,Gyro_X,Gyro_Y,Gyro_Z,Attention,Meditation,A_M
807.952182952183,30.91820998510363,,,,,,,19.841175917876694,19.902083889254968,0.038267376012440915,0.02455736408233821,807.6923076923077,34.21384615384618,0.04236000000000003,40.38461538461536,0.6756756756756757,35.810810810810814,9.25,109.375,,,0.03691576864230213,0.015507229572476938,0.00046894527946896134,2.380552146324204,0.6979469122044399,0.2931869874315233,-4.166448939768043,2021-09-22 19:47:15,2021-09-22 19:47:15.001,0.08039021,0.17118019,-0.026514303,0.0,0.02017199,-0.33800549999999996,-0.20453794,0.0,1.2312071000000002,-0.10700831599999999,0.23089899,0.0,0.8568853000000001,-0.28049383,0.02599107,0.0,-0.18603447,-0.6345371,-0.23987719999999998,0.0,800.6227,801.8315,794.57874,710.7692,711.5751,-0.5770263671875,0.11334228515625,0.82867431640625,1.577606201171875,-2.684173583984375,-0.097198486328125,24.0,60.0,-36.0
808.5758835758836,30.43412030900404,,,,,,,19.841175917876694,19.902083889254968,0.037639164025534334,0.024538421588991936,807.6923076923077,34.21384615384618,0.04236000000000003,46.15384615384619,0.6756756756756757,35.810810810810814,9.25,101.5625,,,0.0370984597403594,0.01577774102079768,0.0004591675959302499,2.3513163064001037,0.6955695794951732,0.2958213565745646,-4.149155128387562,2021-09-22 19:47:16,2021-09-22 19:47:16.031,0.35864250000000003,0.22910006,0.46601808,0.0,0.14905055,-0.39519858,0.09697572,0.0,1.2306030000000001,-0.06350364,0.2505386,0.0,0.810497,-0.24040143,0.16204974,0.0,-0.118500255,-0.5948365,-0.27004007,0.0,775.2381,784.90845,806.6667,1066.9597,1067.3627,-0.57684326171875,0.1121826171875,0.8258056640625,2.175750732421875,-2.669219970703125,-1.143951416015625,26.0,56.99999999999999,-30.999999999999996
809.2621664050235,29.940617994777927,,,,,,,19.949681371393744,20.017238143073502,0.03699742708569066,0.02465169162672709,807.6923076923077,34.21384615384618,0.04236000000000003,42.307692307692385,0.6802721088435374,36.734693877551024,9.1875,117.1875,,,0.036833053296723615,0.01616932179535599,0.00045172569447057283,2.27795907354027,0.6890594501589922,0.3024898287957811,-4.124639548427574,2021-09-22 19:47:17,2021-09-22 19:47:17.000,1.0036733,0.42907870000000004,0.8123560999999999,0.0,0.95602536,0.03833071,0.4448746,0.0,0.930162,0.13969123,0.42173752,0.0,0.4229907,-0.12350595,0.17980927,0.0,-0.25705928,-0.56949997,-0.19295952,0.0,811.9048,799.81683,799.0110000000003,57.61905,819.15753,-0.57891845703125,0.11395263671875,0.83233642578125,1.854248046875,-3.596343994140625,-0.067291259765625,27.0,51.0,-24.0
809.366823652538,29.853564509718122,,,,,,,19.82741455249749,19.89538649770271,0.03688508552277192,0.024497439199471588,807.6923076923077,34.21384615384618,0.04236000000000003,38.461538461538574,0.6802721088435374,36.05442176870749,9.1875,117.1875,,,0.036153024267174864,0.016467333086031412,0.000448921200670046,2.1954389383088406,0.6812420528851177,0.31029879310142977,-4.106376673463667,2021-09-22 19:47:18,2021-09-22 19:47:18.031,1.0913576999999999,0.11595329,0.64218414,0.0,0.7752804,-0.11868386,0.28618735,0.0,0.82871336,0.12583724,0.22095881,0.0,0.46735242,-0.12356978,0.09880708,0.0,-0.3581739,-0.53630054,-0.13754623,0.0,831.6484,797.8022,801.02563,80.98901,761.1355599999997,-0.58123779296875,0.11492919921875,0.83013916015625,2.041168212890625,-2.863616943359375,0.059814453125,26.0,53.0,-27.0
809.1575091575091,29.973013899810837,,,,,,,19.858051832505513,19.924656770142697,0.03704224895721303,0.02454163943084656,807.6923076923077,34.21384615384618,0.04236000000000003,42.307692307692385,0.6802721088435374,36.05442176870749,9.1875,101.5625,,,0.034954604131078024,0.01666958884761564,0.0004472929444895663,2.096908595083784,0.6712810958120855,0.3201289256889444,-4.094169246733821,2021-09-22 19:47:19,2021-09-22 19:47:19.011,1.1993588,0.050885633,0.28786758,0.0,0.31672195,-0.19367023,-0.041991085,0.0,0.44514626,0.00071493996,0.15713504,0.0,0.385596,-0.04557797,0.110881045,0.0,-0.41607967,-0.42447683,-0.07767039,0.0,804.65204,799.41394,800.6227,241.75824,734.1392,-0.58599853515625,0.1175537109375,0.8282470703125,2.026214599609375,-3.416900634765625,-0.11962890625,25.0,50.0,-25.0
809.1575091575091,29.86464470897865,,,,,,,19.528776338854954,19.594218227077487,0.036908320532146544,0.024134703216421017,807.6923076923077,34.21384615384618,0.04236000000000003,42.307692307692385,0.6802721088435374,35.374149659863946,9.8,125.0,,,0.03308321644555276,0.016882467281701327,0.00045011156251191297,1.959619757795189,0.6562073702379616,0.33486464281023315,-4.081479634517965,2021-09-22 19:47:20,2021-09-22 19:47:20.000,1.1183426,0.31306648,0.5711927,0.0,0.37068179999999995,-0.12893358,-0.095761046,0.0,0.43418366,0.0018432428,-0.025135849,0.0,0.5175877999999999,-0.10568886,-0.06576159599999999,0.0,-0.45067498,-0.60549456,-0.21497872,0.0,785.7143,793.7729,796.5934,81.39194499999998,660.80585,-0.58172607421875,0.12066650390625,0.830078125,2.4224853515625,-2.474822998046875,-0.299072265625,23.0,50.0,-27.0
809.5238095238095,29.413401693514253,,,,,,,19.57023875567702,19.63411893169364,0.03633420209198819,0.024175000815836317,807.6923076923077,34.21384615384618,0.04236000000000003,38.461538461538574,0.6802721088435374,35.374149659863946,9.1875,117.1875,,,0.03183866635403619,0.017251757618320172,0.0004624039904880925,1.8455317457176497,0.6425196636185802,0.3481488005337623,-4.059841249778184,2021-09-22 19:47:21,2021-09-22 19:47:21.002,0.90638494,0.3723499,0.53513783,0.0,0.5988920999999999,-0.15282421,-0.16288567,0.0,1.3091142,0.29926997,0.124257356,0.0,0.71535546,-0.056939225999999996,0.08604665,0.0,-0.4659164000000001,-0.6775166,-0.1162714,0.0,806.6667,796.99634,803.0403,13.296702999999999,806.26373,-0.5816650390625,0.11773681640625,0.825927734375,1.9439697265625,-3.9776611328125,-0.61309814453125,26.0,57.99999999999999,-31.999999999999996
810.0632244467862,28.973671371133218,,,,,,,19.111033080153906,19.176611036516835,0.035767172853600565,0.0235920265275656,807.6923076923077,22.809230769230894,0.02824000000000016,38.461538461538574,0.6849315068493149,34.246575342465746,8.588235294117647,117.1875,,,0.030334936466088605,0.017802033836579703,0.0004858190177514377,1.7040152122257084,0.6238830986471002,0.3661253104848824,-4.028442567729323,2021-09-22 19:47:22,2021-09-22 19:47:22.035,0.11970224,-0.04490377,-0.19122474,0.0,0.41739740000000003,-0.3216684,-0.46440127,0.0,1.2931057,0.39439473,-0.06726547,0.0,0.6956768,0.11729521,0.16852513,0.0,-0.33314806,-0.72033894,-0.27842757,0.0,800.6227,799.81683,810.696,1196.3004,703.5165,-0.5865478515625,0.11834716796875,0.82452392578125,1.697235107421875,-3.36456298828125,-0.13458251953125,30.0,64.0,-34.0
809.8524762908323,28.990259333879862,,,,,,,19.025428918195832,19.08773806178247,0.03579696325268621,0.023492462485678024,807.6923076923077,22.809230769230894,0.02824000000000016,38.461538461538574,0.6849315068493149,33.561643835616444,8.588235294117647,117.1875,,,0.028959669445162067,0.018149012892148424,0.0005058834532862127,1.5956608558964944,0.6082103021273639,0.3811651453877719,-4.00913910585778,2021-09-22 19:47:23,2021-09-22 19:47:23.000,0.01597482,-0.19877401,-0.06403601,0.0,0.3800386,-0.5325089,-0.34721056,0.0,1.1654432,0.035952553,0.011538466,0.0,0.73313344,0.018793693,0.12182969,0.0,-0.39966953,-0.6763861999999999,-0.24594498,0.0,798.20514,795.38464,796.5934,1253.9194,747.8388,-0.58990478515625,0.11737060546875,0.8291015625,1.31591796875,-3.33465576171875,0.13458251953125,38.0,71.0,-33.0
808.5818942961799,30.056511131446463,,,,,,,19.424733103444854,19.475460826827646,0.03717188245676559,0.024023210562181672,807.6923076923077,22.809230769230894,0.02824000000000016,34.61538461538464,0.6802721088435374,34.693877551020414,8.647058823529411,140.625,,,0.0277816974568304,0.018566812720263802,0.0005312007143638451,1.4963094568465958,0.5926166550206371,0.3960522018416897,-3.9863795543064513,2021-09-22 19:47:24,2021-09-22 19:47:24.042,0.48514763,-0.2777965,-0.08278409,0.0,0.3588028,-0.33532655,-0.4462237,0.0,1.1158203000000002,0.15392329999999999,0.24797931,0.0,0.6813695,0.027812956,0.11239298,0.0,-0.29629016,-0.5678813,-0.22269754,0.0,817.1429,801.4286,798.60803,1575.8608,839.707,-0.59002685546875,0.111083984375,0.82110595703125,1.786956787109375,-3.775787353515625,-0.351409912109375,44.0,76.0,-32.0
807.7446363160649,30.920290395494884,,,,,,,19.43516249109747,19.483711332319444,0.03827978423541768,0.02406102327059294,807.6923076923077,22.809230769230894,0.02824000000000016,34.61538461538464,0.6802721088435374,34.693877551020414,8.647058823529411,148.4375,,,0.026968322293113627,0.019149729036011025,0.0005637498632207566,1.4082874093100617,0.5777052642419404,0.4102182980709639,-3.955466713011148,2021-09-22 19:47:25,2021-09-22 19:47:25.016,0.07833083,-0.23080146,-0.010802148000000001,0.0,0.5801947,-0.49862114,-0.30242544,0.0,1.0324556999999999,0.15190867,0.22458267,0.0,0.509296,-0.12976725,0.008325868,0.0,-0.31104964,-0.60441285,-0.49013729999999994,0.0,821.1722,810.696,778.8644400000003,1460.2197,809.0842,-0.59661865234375,0.11279296875,0.8233642578125,1.614990234375,-3.581390380859375,0.13458251953125,46.0,86.0,-40.0
806.4968814968814,32.02202123681707,,,,,,,19.49323764930413,19.55283242946906,0.03970507756630537,0.02417025793469173,807.6923076923077,28.51153846153854,0.035300000000000095,38.46153846153845,0.6756756756756757,35.135135135135144,8.705882352941176,148.4375,,,0.02652413298582701,0.02014402423001752,0.0006150995907960009,1.316724636694102,0.5609624796848156,0.4260286957895943,-3.904847598840444,2021-09-22 19:47:26,2021-09-22 19:47:26.002,0.9237574000000001,0.4733228,0.717354,0.0,0.47720070000000003,-0.56322354,-0.396161,0.0,1.1006881000000002,0.19980894,0.06795973,0.0,0.5961847,-0.12094128,0.03668164,0.0,-0.44961604,-0.49746013,-0.4257161,0.0,824.7985,798.20514,805.8608,715.6044,698.6813400000003,-0.59698486328125,0.1109619140625,0.8138427734375,1.7645263671875,-2.75146484375,-1.218719482421875,46.0,98.0,-52.0
806.1850311850313,32.0841332486119,,,,,,,19.56537781842292,19.631636230427013,0.03979748073646399,0.02426909091782973,807.6923076923077,34.21384615384618,0.04236000000000003,38.46153846153845,0.6756756756756757,35.135135135135144,8.705882352941176,132.8125,,,0.026502582069543583,0.021050567885751038,0.000661100465584288,1.2589960619296632,0.5496835860392593,0.4366046905633361,-3.860827741272228,2021-09-22 19:47:27,2021-09-22 19:47:27.000,1.5300478000000002,0.49665284,0.66384846,0.0,0.6567005,-0.54375863,-0.37020257,0.0,1.1798856000000002,0.17116638,0.13191907,0.0,0.60851556,-0.14516233,0.05646714200000001,0.0,-0.3373246,-0.32758382,-0.28008099999999997,0.0,805.8608,796.99634,799.81683,337.25275,737.3626,-0.59417724609375,0.1104736328125,0.81683349609375,1.6748046875,-3.641204833984375,-0.25421142578125,42.0,100.0,-58.0
806.2271062271063,32.18972558812373,,,,,,,19.71467052142488,19.782464691682645,0.03992637476400626,0.024452998874825046,807.6923076923077,34.21384615384618,0.04236000000000003,38.46153846153845,0.6802721088435374,36.05442176870749,9.1875,148.4375,,,0.026724074238486186,0.021983210095701103,0.0007087931745512124,1.2156584103116121,0.5407971572361329,0.4448594709244921,-3.8174762944601297,2021-09-22 19:47:28,2021-09-22 19:47:28.004,1.1808238000000002,0.30437306,0.6751786999999999,0.0,0.62159693,0.07770084,0.22905134,0.0,0.81096625,-0.061067052000000004,0.35331544,0.0,0.34979734,-0.17799924,-0.017416223999999998,0.0,-0.3064883,-0.46532896,-0.31319332,0.0,809.4872,799.81683,800.6227,646.7033,741.39197,-0.60174560546875,0.1126708984375,0.81707763671875,1.846771240234375,-2.6019287109375,0.007476806640625,40.0,100.0,-60.0
806.029106029106,32.170355984393055,,,,,,,19.65774046153661,19.723828381929128,0.039912151737150015,0.024388375450087985,807.6923076923077,34.21384615384618,0.04236000000000003,38.46153846153845,0.6756756756756757,35.810810810810814,9.25,148.4375,,,0.02736148643198896,0.023158211011972383,0.0007691058802018365,1.1815025961134715,0.5334787450402146,0.4515256646875614,-3.76540587399436,2021-09-22 19:47:29,2021-09-22 19:47:29.005,0.20796979999999998,0.10337919999999999,0.2302109,0.0,0.32179052,-0.21865463,0.060673307999999995,0.0,0.3675587,-0.10132287400000001,0.13487339,0.0,0.27269104,-0.17638168,0.04700658,0.0,-0.38024014,-0.50748885,-0.13190977,0.0,846.1539,794.17584,791.75824,1486.0073,874.7619,-0.60992431640625,0.104736328125,0.8150634765625,1.65985107421875,-3.087921142578125,0.082244873046875,40.0,100.0,-60.0
806.029106029106,32.170355984393055,,,,,,,19.81072129375818,19.878381105432766,0.039912151737150015,0.02457817111761075,807.6923076923077,34.21384615384618,0.04236000000000003,38.46153846153845,0.6756756756756757,36.48648648648648,9.25,148.4375,,,0.028295533590928325,0.02419896559035939,0.0008197546128748106,1.1692869054783468,0.530731119302029,0.4538929811113474,-3.721445390933081,2021-09-22 19:47:30,2021-09-22 19:47:30.020,0.097530834,0.3398355,0.33160272,0.0,0.19407429,-0.1595744,0.16835266,0.0,0.31311208,-0.016407782,-0.11983121,0.0,0.3562357,-0.17136954,0.08488992599999999,0.0,-0.18638153,-0.5648696,-0.088941246,0.0,807.0696,794.57874,792.1612,1002.8938,732.1245,-0.61053466796875,0.1114501953125,0.805419921875,1.338348388671875,-2.99072265625,0.261688232421875,45.0,89.0,-44.0
806.029106029106,32.170355984393055,,,,,,,19.81072129375818,19.878381105432766,0.039912151737150015,0.02457817111761075,807.6923076923077,34.21384615384618,0.04236000000000003,38.46153846153845,0.6756756756756757,36.48648648648648,9.25,148.4375,,,0.029565818598505194,0.025296503873748682,0.0008705814638755576,1.168770939496781,0.5304912629779344,0.4538881358620533,-3.677089079605692,2021-09-22 19:47:31,2021-09-22 19:47:31.022,-0.12979023,0.07896304,0.41319817,0.0,-0.5658805,-0.39024615,0.27774447,0.0,-0.2284531,-0.009428161,0.32793486,0.0,0.36170664,-0.04246251,0.1308598,0.0,-0.23095648,-0.6523025,-0.2795267,0.0,823.5897,797.8022,795.38464,251.02562999999998,623.73627,-0.60369873046875,0.1065673828125,0.80877685546875,1.742095947265625,-3.4393310546875,-0.142059326171875,55.00000000000001,72.0,-16.999999999999993
806.3317634746205,32.2949028862043,,,,,,,19.82741455249749,19.893138558426827,0.040051631783721474,0.024589648393680774,807.6923076923077,34.21384615384618,0.04236000000000003,38.46153846153845,0.6802721088435374,36.05442176870749,9.1875,148.4375,,,0.03156332028153018,0.02671041373149677,0.0009318399414523391,1.1816859371336088,0.533113998790011,0.4511469435636804,-3.6227017622199638,2021-09-22 19:47:32,2021-09-22 19:47:32.001,-0.11707097,0.27129570000000003,0.47446263,0.0,-0.63373184,-0.016798768000000002,0.28317216,0.0,-0.37290013,0.040900964,0.36962432,0.0,0.34939277,-0.12004667,0.10229432599999999,0.0,-0.21885593,-0.76045424,-0.4652082,0.0,801.4286,801.4286,791.3553,217.17949,692.6374,-0.603759765625,0.109619140625,0.81109619140625,2.100982666015625,-2.295379638671875,0.037384033203125,55.00000000000001,72.0,-16.999999999999993
806.7503924646782,32.41011862426009,,,,,,,19.82741455249749,19.893138558426827,0.04017366328790364,0.024576888635806385,807.6923076923077,34.21384615384618,0.04236000000000003,42.30769230769226,0.6802721088435374,36.05442176870749,9.1875,148.4375,,,0.03327175295118997,0.027715462387691004,0.0009727675888821098,1.2004761993783883,0.5369877682177593,0.4473122986493309,-3.585764812587588,2021-09-22 19:47:33,2021-09-22 19:47:33.001,0.31754315,0.07506107,0.4383968,0.0,0.21508774,0.13120177,0.054829188,0.0,0.45948005,0.14174947,0.20059378,0.0,0.34870386,-0.22707115,-0.06875927,0.0,-0.33580974,-0.6363221,-0.33276588,0.0,797.3993,801.4286,804.2491,135.38461,664.83514,-0.61260986328125,0.09698486328125,0.80963134765625,1.428070068359375,-3.551483154296875,-2.213134765625,59.0,53.0,6.0
806.9646569646568,32.330084162241825,,,,,,,19.82087803438635,19.88864191764641,0.040063816777117914,0.024562262873991592,807.6923076923077,34.21384615384618,0.04236000000000003,40.38461538461536,0.6756756756756757,36.48648648648648,9.25,132.8125,,,0.0353514641606912,0.028858133423126514,0.0010151820854798633,1.2250086879271622,0.5419943821953873,0.4424412557534561,-3.5453634046814,2021-09-22 19:47:34,2021-09-22 19:47:34.034,1.0326605,-0.50961757,-0.053540297,0.0,0.66676,-0.051743858,-0.14901383,0.0,0.6439279,0.006708813,0.05031723,0.0,0.36241156,-0.2489123,-0.017157855,0.0,-0.25121479999999996,-0.59506655,-0.11887738,0.0,781.685,793.7729,777.6557,220.0,736.9597,-0.34710693359375,0.042236328125,0.95697021484375,-0.01495361328125,-22.572479248046875,-0.575714111328125,50.0,34.0,16.0
807.0166320166319,32.34988963972169,,,,,,,19.79039217471077,19.85798241368532,0.040085778107055166,0.024522904968212484,807.6923076923077,34.21384615384618,0.04236000000000003,40.38461538461536,0.6756756756756757,36.48648648648648,9.866666666666667,156.25,,,0.03854689413389574,0.030591115855463976,0.001074494992539675,1.2600682602106117,0.5490032600864054,0.4356932695016407,-3.4870456436989423,2021-09-22 19:47:35,2021-09-22 19:47:35.024,1.1467718,0.23300266,0.51786435,0.0,0.84588474,0.19766824,0.08879512,0.0,0.6107395,0.22310421,0.096933,0.0,0.37594566,-0.11016120000000001,-0.008096641,0.0,-0.21749897,-0.5447533,-0.18056875,0.0,803.8461,792.96704,754.6886599999997,20.146520000000002,768.7912,-0.23492431640625,0.03253173828125,0.99224853515625,1.42059326171875,-0.059814453125,3.267364501953125,40.0,29.0,11.000000000000005
806.6457352171639,32.14318415679993,,,,,,,19.663209534352774,19.728347167614924,0.03984795648630857,0.02437651211167574,807.6923076923077,34.21384615384618,0.04236000000000003,38.46153846153845,0.6802721088435374,36.05442176870749,9.8,156.25,,,0.041250455911135034,0.032015184635061616,0.001119944362965982,1.2884653448463748,0.5545490562655225,0.4303950109978643,-3.441544968885674,2021-09-22 19:47:36,2021-09-22 19:47:36.021,0.73667014,0.21468645,0.75220007,0.0,0.22424560000000002,0.018581845,0.34208304,0.0,0.48661077,0.1851156,0.09521007,0.0,0.2561542,-0.10303659999999999,-0.09278849,0.0,-0.31459153,-0.4606574000000001,-0.20596562,0.0,803.0403,801.4286,800.2198,1326.4469,760.7326,-0.254150390625,0.05517578125,0.98895263671875,1.727142333984375,-2.385101318359375,-0.186920166015625,36.0,30.0,6.0
806.2271062271063,31.618076966541103,,,,,,,19.704389075864388,19.76769435179452,0.0392173330843513,0.02444024633217164,807.6923076923077,34.21384615384618,0.04236000000000003,38.46153846153845,0.6802721088435374,36.05442176870749,9.1875,132.8125,,,0.043934764310552,0.033407978062303285,0.0011616003571825655,1.3150979753583731,0.5596475657612427,0.42555579603012855,-3.3989605433821617,2021-09-22 19:47:37,2021-09-22 19:47:37.016,0.37898985,0.029580167999999997,0.47411359999999997,0.0,0.1584384,-0.21959849,-0.17512849,0.0,0.27938047,-0.18108304,-0.115225196,0.0,0.25731325,-0.062052865,0.17762020000000006,0.0,-0.3398142,-0.3763302,-0.0033251070000000003,0.0,815.12823,799.81683,792.1612,36.666668,891.28204,-0.2403564453125,0.05474853515625,0.9884033203125,1.89910888671875,-3.9178466796875,-0.276641845703125,36.0,30.0,6.0
806.0291060291062,31.088616331434967,,,,,,,19.820878034386357,19.884205459434263,0.03857009145065828,0.024590772077740096,807.6923076923077,28.51153846153854,0.035300000000000095,38.46153846153845,0.6756756756756757,37.162162162162154,8.705882352941176,132.8125,,,0.0445659564784297,0.03318766641423033,0.001143862168559529,1.342846945674992,0.5648590248960317,0.4206428936040073,-3.4055769656277968,2021-09-22 19:47:38,2021-09-22 19:47:38.003,0.19640726,-0.25073734,0.18564187,0.0,0.13833153,-0.40755677,-0.25796682,0.0,0.31699046,-0.05107744400000002,0.07300388,0.0,0.14752363,-0.1703003,0.07601915,0.0,-0.2756603,-0.5732316,-0.11055964,0.0,798.60803,797.8022,787.7289400000003,0.0,776.04395,-0.24163818359375,0.06536865234375,0.9962158203125,1.65985107421875,-3.342132568359375,0.216827392578125,43.0,13.0,30.0
805.5613305613306,30.530483293462435,,,,,,,19.83102957309768,19.893215978926307,0.03789963859385878,0.024617653331595542,807.6923076923077,22.809230769230894,0.02824000000000016,38.46153846153845,0.6756756756756757,37.162162162162154,8.705882352941176,132.8125,,,0.044386398614984966,0.032664354058992304,0.001117437973392332,1.3588635040761097,0.5678319818763592,0.4178727150836447,-3.421470885598177,2021-09-22 19:47:39,2021-09-22 19:47:39.004,0.24463218,-0.39169428,0.07338966400000001,0.0,0.07874148,-0.5743464,-0.297091,0.0,0.5331823,0.11483825,0.041217316000000004,0.0,0.25243905,-0.32272533,0.07087644,0.0,-0.11566165,-0.6528515,-0.0045570596,0.0,784.90845,794.9817,785.3113400000003,658.3883,1144.7252,-0.23834228515625,0.06390380859375,0.9906005859375,1.128997802734375,-2.8411865234375,0.1495361328125,55.00000000000001,10.0,45.00000000000001
805.3534303534302,30.14354398205492,,,,,,,20.073126386549827,20.14113668213856,0.03742896329233538,0.024924617726829214,807.6923076923077,22.809230769230894,0.02824000000000016,38.46153846153845,0.6756756756756757,37.837837837837846,8.705882352941176,132.8125,,,0.043587858757216914,0.031826536266743866,0.0010800554645299463,1.3695445332756069,0.5698172675124333,0.4160633361440051,-3.4474548633787143,2021-09-22 19:47:40,2021-09-22 19:47:40.038,0.15518697,-0.22942257,-0.10491665,0.0,0.08828764,-0.3983502,-0.5707888000000001,0.0,0.51531714,0.051844295,0.038481068,0.0,0.18200667,-0.12280744,0.058253244,0.0,-0.25604013,-0.5567306,-0.026304966000000003,0.0,801.02563,796.99634,784.5055,134.57875,662.8205,-0.2335205078125,0.06878662109375,0.99530029296875,1.951446533203125,-3.48419189453125,0.067291259765625,55.00000000000001,10.0,45.00000000000001
805.3534303534302,30.14354398205493,,,,,,,20.153179052716368,20.22201084197296,0.03742896329233539,0.02502401839136902,807.6923076923077,22.809230769230894,0.02824000000000016,38.46153846153845,0.6756756756756757,38.51351351351352,8.705882352941176,132.8125,,,0.04319182262849383,0.031512737832741784,0.001064019142371906,1.3706147291212971,0.5700492586037257,0.4159077284753718,-3.4573634392457486,2021-09-22 19:47:41,2021-09-22 19:47:41.011,-0.11302416,0.30325243,0.5144711,0.0,-0.06579051,-0.20944369999999998,0.38414913,0.0,0.3239907,-0.119557604,0.26001075,0.0,0.059403202999999995,-0.13855219,0.13129467,0.0,-0.39068028,-0.652614,-0.19364515,0.0,798.60803,796.99634,795.38464,0.0,856.2271,-0.23199462890625,0.0723876953125,0.99688720703125,1.77947998046875,-3.36456298828125,-0.34393310546875,63.0,8.0,55.0
805.3534303534302,30.14354398205492,,,,,,,20.002817496668204,20.070104463102293,0.03742896329233538,0.024837315820322444,807.6923076923077,22.809230769230894,0.02824000000000016,38.46153846153845,0.6756756756756757,37.837837837837846,8.705882352941176,132.8125,,,0.04263026376024258,0.031219891030591293,0.0010514662206252462,1.3654840665033279,0.5691500822621799,0.4168119542541676,-3.466699854272778,2021-09-22 19:47:42,2021-09-22 19:47:42.006,0.4373201,0.8025078,0.962741,0.0,0.38660482,0.33199197,0.72614336,0.0,0.45795155,0.3117977,0.56515783,0.0,0.15431902,-0.20517979999999997,0.09348099,0.0,-0.20473054,-0.5585770999999999,-0.25156584,0.0,809.0842,794.57874,803.8461,5.2380953,925.9341,-0.23016357421875,0.074462890625,0.9940185546875,1.906585693359375,-2.75146484375,-0.1495361328125,54.0,8.0,46.0
805.5468341182626,30.341899692931264,,,,,,,19.847844660496012,19.911676467777497,0.03766621431284374,0.02463897047304657,807.6923076923077,22.809230769230894,0.02824000000000016,38.46153846153845,0.6802721088435374,37.41496598639456,8.647058823529411,132.8125,,,0.04219899320980091,0.03122433597567228,0.0010528379043724645,1.3514776821092138,0.566610700559998,0.4192527246737099,-3.466557488987736,2021-09-22 19:47:43,2021-09-22 19:47:43.005,0.9753748,1.0134982,1.0550361000000001,0.0,0.575287,0.562823,0.745023,0.0,0.45752686,0.51690495,0.5256962,0.0,0.37823984,0.008085958,0.05790986,0.0,-0.22617245,-0.42460185,-0.2689502,0.0,805.05493,801.8315,796.99634,580.2198,772.4176,-0.2342529296875,0.06927490234375,0.99493408203125,1.5850830078125,-3.33465576171875,0.067291259765625,54.0,8.0,46.0
805.7692307692308,30.19979359046439,,,,,,,19.861453057473934,19.9293556591663,0.03747945743923981,0.024649058687079825,807.6923076923077,22.809230769230894,0.02824000000000016,38.46153846153845,0.6756756756756757,37.162162162162154,8.222222222222221,132.8125,,,0.0431475694793939,0.03230905357988775,0.0010933509097094435,1.3354637384442942,0.5636523076659979,0.4220648539080564,-3.4324077914383246,2021-09-22 19:47:44,2021-09-22 19:47:44.000,1.3993558000000001,0.6076959,0.44245103,0.0,1.0993541,0.31048816,0.24387775,0.0,1.3929334999999998,0.20879914,-0.042258855,0.0,0.42294043,0.04412904,-0.113891065,0.0,-0.2933323,-0.34196696,-0.22458687,0.0,808.2784,795.78754,793.7729,16.923077,805.05493,-0.23626708984375,0.06842041015625,0.985107421875,1.398162841796875,-2.833709716796875,-0.35888671875,26.0,5.0,21.0
805.8212058212057,30.209743543040837,,,,,,,19.861453057473934,19.9293556591663,0.03748938762694181,0.024647468835513324,807.6923076923077,22.809230769230894,0.02824000000000016,38.46153846153845,0.6756756756756757,37.162162162162154,7.7894736842105265,132.8125,,,0.04306923953173688,0.0327335490219397,0.0011148914016461087,1.3157522119850087,0.55993939958607,0.4255659952426131,-3.4193547630465755,2021-09-22 19:47:45,2021-09-22 19:47:45.040,1.6196909,0.69671136,0.46574172,0.0,1.3994651000000002,0.2965505,0.14586845,0.0,1.3929334999999998,0.055225745,0.008423909,0.0,0.59402657,-0.022269445,0.23956527,0.0,-0.21303785,-0.39619717,-0.08584193,0.0,805.05493,801.4286,793.7729,8.058608,830.4396,-0.23284912109375,0.06597900390625,0.99273681640625,1.9439697265625,-3.42437744140625,0.246734619140625,17.0,8.0,9.0
805.925155925156,30.26928472145121,,,,,,,19.901945358543774,19.969710275558967,0.03755843144851807,0.02469453300002465,807.6923076923077,22.809230769230894,0.02824000000000016,38.46153846153845,0.6756756756756757,37.162162162162154,8.222222222222221,132.8125,,,0.04291244653484446,0.033171212493715005,0.0011398370357745488,1.2936652991799784,0.5556915799188189,0.4295481839630835,-3.406072872765568,2021-09-22 19:47:46,2021-09-22 19:47:46.020,0.14359723,-0.09396674,-0.15162317,0.0,0.098315544,-0.030788707999999998,-0.09893414,0.0,0.45666328,0.06557734,-0.07449175400000001,0.0,0.30861604,-0.19563429,0.25010082,0.0,-0.38072333,-0.54305965,-0.23097396,0.0,794.17584,799.0110000000003,794.17584,0.0,640.2564,-0.23431396484375,0.071044921875,0.99139404296875,2.27294921875,-2.9608154296875,-0.171966552734375,17.0,8.0,9.0
806.2271062271063,30.52236762265472,,,,,,,19.7557427961978,19.81521690536382,0.0378582751521342,0.02450394267770104,807.6923076923077,34.21384615384618,0.04236000000000003,38.46153846153845,0.6802721088435374,36.05442176870749,8.647058823529411,148.4375,,,0.04213511752753464,0.03333526689263404,0.0011596732651487562,1.2639802064055192,0.549851048012559,0.4350155526376589,-3.4011393765654625,2021-09-22 19:47:47,2021-09-22 19:47:47.000,0.106266946,0.25761226,0.5606925,0.0,0.042517833,0.30073124,0.34986818,0.0,0.37850723,0.4316406,0.19485034,0.0,0.051548973,-0.25960892,0.07693282,0.0,-0.53327376,-0.5845993,-0.28772804,0.0,791.75824,803.4432400000003,781.685,0.0,819.9634,-0.22955322265625,0.06964111328125,0.99725341796875,1.816864013671875,-3.050537109375,-0.201873779296875,18.0,2.0,16.0
806.9073783359497,30.63372022274704,,,,,,,19.7557427961978,19.80788060078503,0.037964357552314906,0.024483284360268483,807.6923076923077,34.21384615384618,0.04236000000000003,38.46153846153845,0.6802721088435374,36.05442176870749,8.647058823529411,132.8125,,,0.04375855271705584,0.03527495500147865,0.0012391490955929265,1.2404991789563329,0.5451240117588166,0.4394392362415306,-3.3445820568931546,2021-09-22 19:47:48,2021-09-22 19:47:48.014,0.16479833,0.44806865,0.8073560000000001,0.0,0.021260781,0.44442242,0.45503062,0.0,0.23653486,0.41467357,0.20074360000000002,0.0,0.099289164,-0.042538017000000004,0.11904267,0.0,-0.27516896,-0.2419735,-0.08263671,0.0,808.2784,799.0110000000003,805.4579,344.5055,691.02563,-0.2322998046875,0.0703125,0.9947509765625,1.697235107421875,-3.289794921875,0.16448974609375,15.0,5.0,10.0
807.7962577962578,30.41378269379577,,,,,,,19.42082951181182,19.48545713155934,0.03765031392540411,0.024041742363097376,807.6923076923077,34.21384615384618,0.04236000000000003,38.461538461538574,0.6756756756756757,35.810810810810814,8.705882352941176,148.4375,,,0.047230666159221564,0.03893503137102952,0.0013807973621722854,1.213063518792092,0.5394923716507249,0.4447354679233323,-3.24586088422526,2021-09-22 19:47:49,2021-09-22 19:47:49.022,-0.30163577,0.17511126,0.6278716,0.0,-0.13697174,-0.35529032,0.118953355,0.0,0.20114246,0.08304057,0.055944704000000005,0.0,0.08531967,0.22139779,0.4381028,0.0,-0.24214676,0.09550977,0.07445547,0.0,812.3077,787.7289400000003,813.1135,1280.1099,615.6777,-0.37579345703125,0.10626220703125,0.93316650390625,6.901092529296875,28.8604736328125,7.005767822265625,17.0,10.0,7.0
808.1109366823654,30.435256952916284,,,,,,,19.42473310344486,19.4915281528853,0.03766222627535,0.024037211008666143,807.6923076923077,34.21384615384618,0.04236000000000003,38.461538461538574,0.6802721088435374,35.374149659863946,8.166666666666666,148.4375,,,0.04514995586567814,0.0378110386170732,0.0013466115403019294,1.1940945691264648,0.5355383457731232,0.4484890557411162,-3.2751541920814544,2021-09-22 19:47:50,2021-09-22 19:47:50.001,-0.30163577,0.33100623,0.05407424,0.0,-0.13697174,0.07099317,-0.20418647,0.0,0.20114246,0.34530765,-0.0076636790000000005,0.0,0.08531967,0.15370996,0.5450459,0.0,-0.24214676,0.061757457,0.037104137,0.0,794.17584,804.65204,815.12823,289.70697,709.9634,-0.5159912109375,0.07855224609375,0.884033203125,1.637420654296875,-1.263580322265625,-0.1495361328125,20.0,13.0,7.0
808.1632653061224,30.44114454190664,,,,,,,18.90664685475956,18.96701508478685,0.037667072791753166,0.02339458827987925,807.6923076923077,34.21384615384618,0.04236000000000003,38.461538461538574,0.0,34.693877551020414,7.736842105263157,132.8125,,,0.04161102683542029,0.03528807453190124,0.001258453932323593,1.1791809949223204,0.5323992885382537,0.4514992107495135,-3.3442102040784296,2021-09-22 19:47:51,2021-09-22 19:47:51.003,0.18158749,0.16216783,0.7544028,0.0,-0.010001102,-0.077570476,0.03453459,0.0,0.39502054,0.34753916,0.21515852,0.0,0.3403386,0.09554784,0.43129042,0.0,-0.1684379,-0.31719446,0.11962554,0.0,775.2381,782.49084,826.4103,525.0183,939.2308,-0.51153564453125,0.06427001953125,0.87774658203125,2.400054931640625,-2.519683837890625,1.06170654296875,20.0,24.0,-4.0
808.6342229199373,30.128981049059917,,,,,,,18.917361872255995,18.97651772712069,0.03725909712337636,0.023394213769417718,807.6923076923077,22.809230769230894,0.02824000000000016,38.461538461538574,0.0,34.693877551020414,7.736842105263157,132.8125,,,0.040108678329502934,0.03434907009849028,0.0012191521832248054,1.167678723601481,0.5299989561617615,0.4538910793262392,-3.3711803320487657,2021-09-22 19:47:52,2021-09-22 19:47:52.026,0.38766733,0.097828425,0.76555806,0.0,0.3327283,-0.01590725,0.22734855,0.0,0.44884157,-0.0040809596000000005,0.21021704,0.0,0.20971256,-0.18611027,0.41778365,0.0,-0.27629554,-0.5243564000000001,0.015968224,0.0,794.17584,796.1905,794.17584,455.31134000000003,707.5458,-0.5172119140625,0.06353759765625,0.87652587890625,2.115936279296875,-3.357086181640625,0.127105712890625,29.0,26.0,2.9999999999999964
809.4714809000521,29.738641965958706,,,,,,,18.73437313191616,18.797673919131803,0.03673834429953268,0.023143956981764684,815.3846153846154,22.809230769230894,0.027973584905660532,38.461538461538574,0.0,33.33333333333333,7.736842105263157,148.4375,,,0.03907532098551477,0.033547369002411,0.0011792645730371225,1.1647804924048288,0.5294618715448417,0.4545593568893863,-3.394796838835864,2021-09-22 19:47:53,2021-09-22 19:47:53.010,0.273593,-0.060361356,0.15471855,0.0,0.35257897,-0.17268215,-0.039847597,0.0,0.5174795999999999,-0.09145885,-0.06747299,0.0,0.30063059999999997,-0.17164737,0.27866045,0.0,-0.32269275,-0.5486555000000001,0.0091466615,0.0,799.41394,796.5934,798.60803,0.0,751.8681,-0.50958251953125,0.06890869140625,0.87139892578125,2.071075439453125,-3.132781982421875,0.007476806640625,34.0,30.0,4.0
809.942438513867,30.13319011914771,,,,,,,19.002864508495783,19.06234153815161,0.0372041131397411,0.023461993846579297,815.3846153846154,22.809230769230894,0.027973584905660532,38.461538461538574,0.0,34.013605442176875,7.736842105263157,132.8125,,,0.03764134397787376,0.03221970103260684,0.0011153775145869805,1.1682710506773522,0.5303358867457643,0.4539493522828292,-3.4351771802146938,2021-09-22 19:47:54,2021-09-22 19:47:54.001,0.18373477,0.058306403,-0.19349620000000006,0.0,0.39465988,0.111768775,-0.39428565,0.0,0.39179367,-0.08593211,-0.16141449,0.0,0.36722505,-0.09970432,0.18792257,0.0,-0.43591260000000004,-0.54000556,-0.019727638000000002,0.0,810.696,796.99634,792.1612,23.772894,807.47253,-0.5174560546875,0.0579833984375,0.86956787109375,1.637420654296875,-3.69354248046875,-0.411224365234375,41.0,34.0,7.0
810.204081632653,30.213142292335053,,,,,,,19.162153669608234,19.225499804932326,0.03729078015930522,0.023651020902035358,815.3846153846154,22.809230769230894,0.027973584905660532,38.461538461538574,0.0,34.693877551020414,7.736842105263157,148.4375,,,0.03617808585509319,0.030627748075074557,0.0010321534991670632,1.181219257988334,0.5333012848115376,0.4514837369988127,-3.4858488810793578,2021-09-22 19:47:55,2021-09-22 19:47:55.000,-0.10315941,0.13514094,0.32426822,0.0,0.12046722,0.16608842,0.14928705,0.0,0.30542415,0.053387538,0.42529762,0.0,0.35312697,-0.09529652,0.13897845,0.0,-0.26019385,-0.6560311,-0.12331377,0.0,807.47253,791.75824,795.38464,1577.8755,839.304,-0.5181884765625,0.06201171875,0.88067626953125,1.682281494140625,-3.775787353515625,0.1495361328125,42.0,28.000000000000004,13.999999999999995
810.3610675039246,30.17945114609753,,,,,,,18.99219772993513,19.052881700570826,0.03724198058904326,0.0234367104881222,815.3846153846154,22.809230769230894,0.027973584905660532,38.461538461538574,0.0,34.693877551020414,7.35,132.8125,,,0.035583289178656566,0.02970731130723303,0.0009741930473528756,1.197795681024586,0.5369863434465515,0.44831213866727015,-3.51636209150812,2021-09-22 19:47:56,2021-09-22 19:47:56.049,-0.3100427,-0.11009718,0.50873625,0.0,0.17659183,0.038339954,0.3324291,0.0,0.44679525,0.25441843,0.41764542,0.0,0.33137690000000003,-0.10495316,0.13060986,0.0,-0.19964121,-0.5368558000000001,0.004597204000000001,0.0,810.293,792.96704,803.0403,1549.6703,814.7253,-0.51153564453125,0.06207275390625,0.8829345703125,1.682281494140625,-3.6187744140625,-0.01495361328125,42.0,22.0,20.0
811.0642781875661,29.633861785555812,,,,,,,18.96097216967689,19.026024719618302,0.03653700771013702,0.023377890852310467,815.3846153846154,22.809230769230894,0.027973584905660532,38.461538461538574,0.0,34.246575342465746,7.3,132.8125,,,0.03430187458806791,0.028135988073444997,0.0008940158849939762,1.2191459030522669,0.5416209873338719,0.4442626481193626,-3.570705807700046,2021-09-22 19:47:57,2021-09-22 19:47:57.004,-0.3466769,-0.42273214,-0.15874559,0.0,0.021536084,-0.08343327,-0.32336518,0.0,0.4175117999999999,0.16387156,0.036113806,0.0,0.36945233,-0.2047227,0.17445904,0.0,-0.2318,-0.55013,-0.032944847,0.0,805.8608,795.78754,805.05493,1291.7949,803.4432400000003,-0.51190185546875,0.06298828125,0.87994384765625,1.83929443359375,-3.409423828125,-0.10467529296875,45.0,20.0,25.0
811.3277133825079,29.568000337077994,,,,,,,19.003967626629148,19.067981799365327,0.03644396690679527,0.02342329408100664,815.3846153846154,22.809230769230894,0.027973584905660532,38.461538461538574,0.0,34.246575342465746,7.3,132.8125,,,0.03367070867216301,0.026891086588176644,0.0008180886013339831,1.252114099657364,0.5485625998909298,0.43810911484907145,-3.6159604008834583,2021-09-22 19:47:58,2021-09-22 19:47:58.001,-0.40188393,-0.37712982,-0.11520772,0.0,0.101390794,-0.13049497,-0.38989124,0.0,0.37029442,0.100266784,0.13666527,0.0,0.4369648,-0.17246684,0.17394619,0.0,-0.33800772,-0.38557297,-0.1456301,0.0,811.0989,799.41394,794.9817,22.161173,898.9377400000003,-0.500244140625,0.0645751953125,0.87860107421875,2.385101318359375,-3.282318115234375,0.059814453125,46.0,23.0,23.0
811.9309262166405,29.63099739635702,,,,,,,18.94947057180678,19.01205520389411,0.03649448055197105,0.02333877175993991,815.3846153846154,22.809230769230894,0.027973584905660532,38.461538461538574,0.0,34.013605442176875,7.35,148.4375,,,0.032469863372488215,0.02530777751753553,0.0007426166982423891,1.2829994000852167,0.5548482646972958,0.4324618270752447,-3.676643518729679,2021-09-22 19:47:59,2021-09-22 19:47:59.001,0.016674798,-0.24661943,-0.27657875,0.0,0.065370426,-0.32696559999999997,-0.2650778,0.0,0.32517585,0.020828405,0.16511047,0.0,0.27387455,-0.2622022,0.13535589,0.0,-0.34192553,-0.5479656999999999,-0.1752625,0.0,809.0842,799.41394,803.0403,43.516483,969.0476,-0.50701904296875,0.05810546875,0.87799072265625,2.235565185546875,-3.147735595703125,-1.039276123046875,46.0,35.0,11.0
812.2972265829409,29.909754077028946,,,,,,,18.94947057180678,19.009996874309035,0.03682119438330368,0.02332824728642837,815.3846153846154,22.809230769230894,0.027973584905660532,38.461538461538574,0.0,34.013605442176875,7.35,148.4375,,,0.03204752478476812,0.024333532161954233,0.0006890399905122273,1.3170108051503846,0.5615467031712568,0.4263797236706314,-3.715899955496024,2021-09-22 19:48:00,2021-09-22 19:48:00.023,0.11127225,0.023009993,0.107574135,0.0,0.07002336,-0.17535569,-0.10897856,0.0,0.11944380000000004,0.1515656,0.18476018,0.0,0.17828053,-0.29371342,0.16253096,0.0,-0.46428990000000003,-0.53231436,-0.1279007,0.0,701.0989,786.1172,813.91943,1270.8425,703.91943,-0.510009765625,0.05462646484375,0.88043212890625,1.697235107421875,-3.828125,0.3887939453125,51.0,50.0,1.0
813.013698630137,30.214698902756734,,,,,,,18.928661486439843,18.983527070317376,0.0371638251036435,0.02328209416192264,815.3846153846154,22.809230769230894,0.027973584905660532,38.461538461538574,0.0,33.561643835616444,7.3,132.8125,,,0.031609316228795016,0.023358277371182703,0.0006401228558133143,1.3532383286017355,0.5684339916012356,0.4200546050070745,-3.756803866413208,2021-09-22 19:48:01,2021-09-22 19:48:01.002,-0.33947915,0.16069746,0.57572365,0.0,0.17530182,-0.25049525,-0.05372094,0.0,-0.09378753599999999,0.011576952,0.15699136,0.0,0.12906623,0.044240218,0.27652990000000005,0.0,-0.47915402,-0.24585961,-0.015077822,0.0,816.337,797.3993,803.4432400000003,1559.3407,763.5531,-0.50128173828125,0.0606689453125,0.88250732421875,2.205657958984375,-3.222503662109375,0.396270751953125,61.0,57.99999999999999,3.0000000000000067
812.6635269492411,31.700894018919982,,,,,,,22.803081947931208,22.871253846278034,0.03900863391510373,0.028059684225689982,815.3846153846154,22.809230769230894,0.027973584905660532,38.461538461538574,0.6802721088435374,34.693877551020414,7.35,171.875,,,0.03059937809058635,0.021858328598082972,0.0005790082680997992,1.3998956028719407,0.5769470849679941,0.4121357934008539,-3.823173258530975,2021-09-22 19:48:02,2021-09-22 19:48:02.002,0.28939652,0.36071336,0.7803296999999999,0.0,0.37624642,0.21748576,0.16064899,0.0,-0.024584211,0.10752039999999999,0.56070507,0.0,0.59209514,0.06296472,0.32532167,0.0,-0.13721342,-0.3696873,0.16309366,0.0,803.8461,788.9377400000003,807.0696,592.71063,628.1685,-0.5052490234375,0.06060791015625,0.88592529296875,1.5850830078125,-3.1402587890625,0.10467529296875,73.0,55.00000000000001,17.999999999999993
813.6577708006281,30.04678633171712,,,,,,,19.05610883954869,19.121706654334325,0.036928039539463255,0.023420299692827544,815.3846153846154,22.809230769230894,0.027973584905660532,30.769230769230827,0.0,34.013605442176875,7.35,148.4375,,,0.029759245887540236,0.02070987273084708,0.0005378978954813154,1.4369593804028664,0.5834343571035722,0.4060200761833646,-3.87714474889304,2021-09-22 19:48:03,2021-09-22 19:48:03.001,0.17178772,0.19677569,0.57216465,0.0,0.29567268,0.13278024,0.20083861,0.0,0.26012316,0.031985037,0.44931683,0.0,0.48415685,-0.07002498,0.20736663,0.0,-0.24943976,-0.70842576,0.20854814,0.0,801.8315,795.38464,793.7729,89.45055,698.2784,-0.50592041015625,0.0618896484375,0.887939453125,1.79443359375,-3.446807861328125,0.179443359375,83.0,51.0,32.0
813.5932560590094,30.13999974262002,,,,,,,19.1110330801539,19.17720214098145,0.037045537826377935,0.02348966506031091,815.3846153846154,22.809230769230894,0.027973584905660532,30.769230769230827,0.0,34.246575342465746,7.3,148.4375,,,0.03005135851996788,0.020287594615594217,0.0005203079926446575,1.4812676953269104,0.5908728883066938,0.3988967626653671,-3.897745682413832,2021-09-22 19:48:04,2021-09-22 19:48:04.034,-0.15136989999999995,-0.03697548,0.41438590000000003,0.0,-0.019395646000000002,-0.18497950000000002,0.045586564,0.0,0.29534304,0.059800904,0.35963538,0.0,0.24348629,-0.045858588,0.26218492,0.0,-0.43705463,-0.59709835,0.06918482,0.0,804.65204,798.60803,805.05493,93.47985,781.685,-0.50079345703125,0.06103515625,0.88604736328125,2.115936279296875,-2.788848876953125,-0.874786376953125,92.0,43.0,49.0
813.6986301369863,30.281184474604174,,,,,,,19.164341504709228,19.230769230769234,0.037214250280237456,0.0235521368660568,815.3846153846154,22.809230769230894,0.027973584905660532,30.769230769230827,0.0,34.93150684931507,7.3,132.8125,,,0.030434937494365436,0.020101573021404397,0.0005159176512086181,1.5140575049503815,0.5961506354765561,0.3937437207816576,-3.90695720720788,2021-09-22 19:48:05,2021-09-22 19:48:05.000,-0.1683615,0.045329873,0.5555149,0.0,-0.19604947,0.04928832,0.35413185,0.0,0.07932427,0.079239205,0.38462022,0.0,0.12425629,-0.18632755,0.24410248,0.0,-0.40982234,-0.54112375,0.031935114,0.0,822.7839,799.0110000000003,792.96704,1541.6117,709.15753,-0.499755859375,0.06072998046875,0.882080078125,2.1234130859375,-2.40753173828125,-0.97198486328125,91.0,41.0,50.0
813.8040042149631,30.474956295411587,,,,,,,19.196255501012462,19.26213180895297,0.0374475379054067,0.02358830308230069,815.3846153846154,22.809230769230894,0.027973584905660532,30.769230769230827,0.0,34.93150684931507,7.3,156.25,,,0.031549316534077894,0.020437733982075414,0.0005301660852875081,1.5436797720210915,0.6007423579491898,0.3891625509626628,-3.89037238172596,2021-09-22 19:48:06,2021-09-22 19:48:06.020,0.85314536,-0.4575004,-0.13639374,0.0,1.0050565,-0.007847392,0.021631337999999996,0.0,1.0059115,0.13532008,0.23499574,0.0,0.29321328,0.11221869,0.26375932,0.0,-0.012233953999999998,-0.25022653,0.27030888,0.0,807.8755,804.2491,802.6374,1432.4176,834.87177,-0.4989013671875,0.055419921875,0.88397216796875,1.921539306640625,-2.818756103515625,-0.112152099609375,92.0,46.0,46.0
813.9620653319284,30.742739586182818,,,,,,,19.100353541415398,19.16389788055832,0.03776925350156967,0.02346590136682402,815.3846153846154,22.809230769230894,0.027973584905660532,30.769230769230827,0.0,34.246575342465746,7.3,132.8125,,,0.033154479823532264,0.021046864504999745,0.0005604430104530336,1.5752693146124603,0.6054309297521688,0.38433487159058505,-3.861003684580431,2021-09-22 19:48:07,2021-09-22 19:48:07.007,1.1624279,-0.15161127,-0.0930067,0.0,1.3299199,-0.020554936,-0.15643781,0.0,1.0059115,0.21844879999999997,0.056357034,0.0,0.5010498999999999,0.23476027,0.30180433,0.0,0.23223270000000001,-0.08661339400000001,0.2863889,0.0,813.5165,809.0842,793.36993,730.1098599999997,695.05493,-0.5028076171875,0.061767578125,0.89190673828125,1.951446533203125,-3.22998046875,0.366363525390625,95.0,50.0,45.0
814.1201264488935,30.888725489786907,,,,,,,19.196255501012466,19.26213180895297,0.037941238014247695,0.023579143761921856,815.3846153846154,22.809230769230894,0.027973584905660532,30.769230769230827,0.0,34.93150684931507,7.3,132.8125,,,0.0336155686983963,0.021075082007450188,0.0005790365390972679,1.5950385714519622,0.6082098592202828,0.38131357454674586,-3.859663883882325,2021-09-22 19:48:08,2021-09-22 19:48:08.009,0.4157949000000001,-0.41532025,-0.41573796,0.0,0.22885174,-0.107185066,-0.48905596,0.0,0.21317689,0.17944814,0.018813077,0.0,0.5441885999999999,0.3225559,0.15612336,0.0,0.08037435,-0.17169242,0.16578218,0.0,787.326,773.6264,833.2601,1626.227,784.1025400000003,-0.50091552734375,0.0638427734375,0.883544921875,1.86920166015625,-2.968292236328125,0.127105712890625,100.0,56.99999999999999,43.00000000000001
813.9717425431711,30.756325114373265,,,,,,,19.476824194835864,19.54387025953369,0.03778549488496773,0.023928133099537983,815.3846153846154,22.809230769230894,0.027973584905660532,30.769230769230827,0.0,35.374149659863946,7.0,132.8125,,,0.035448849804103275,0.022031710199835595,0.0006281890601579827,1.6089921972724477,0.6100432443486509,0.3791461794425056,-3.8152724906845807,2021-09-22 19:48:09,2021-09-22 19:48:09.000,0.47306493,-0.35889336,-0.3421489,0.0,0.23802976,-0.024454936,-0.69921505,0.0,0.20536627,0.17944814,-0.07731747,0.0,0.6256735999999999,0.4908432,0.17712134,0.0,0.18906456,0.02531798,0.21298644,0.0,789.7436,788.1319,801.02563,300.5861,804.65204,-0.491943359375,0.060302734375,0.8770751953125,2.086029052734375,-3.222503662109375,-0.2691650390625,100.0,62.0,38.0
814.0240711669284,30.765287949067673,,,,,,,19.476824194835867,19.54387025953369,0.03779407641467493,0.023926594906358536,815.3846153846154,22.809230769230894,0.027973584905660532,30.769230769230827,0.0,35.374149659863946,7.35,132.8125,,,0.036455095098219134,0.02255173019665604,0.0006704561946433747,1.6165098988114306,0.610870572323606,0.37789473035257015,-3.7919434888523886,2021-09-22 19:48:10,2021-09-22 19:48:10.001,-0.0661799,0.24633351,0.44789946,0.0,0.30724207,0.13858503,0.45934102,0.0,0.57172364,0.26445392,0.31103545,0.0,0.85688823,1.0442446,0.8790616,0.0,0.9502896000000001,1.1638975,1.081181,0.0,799.81683,800.2198,806.6667,232.89377000000002,830.4396,-0.49365234375,0.06292724609375,0.88934326171875,2.04864501953125,-2.818756103515625,-0.897216796875,100.0,62.0,38.0
813.9620653319282,30.861974612296514,,,,,,,19.533427367920066,19.601062135867966,0.03791574070434254,0.0239979578900332,815.3846153846154,22.809230769230894,0.027973584905660532,30.769230769230827,0.0,35.61643835616439,7.3,132.8125,,,0.037794000289073634,0.023384600186681054,0.0007356854947018121,1.6161918522173238,0.6104245522125169,0.37769312558719376,-3.755677584949329,2021-09-22 19:48:11,2021-09-22 19:48:11.012,-0.064922415,0.27442208,0.36070368,0.0,0.32937166,0.20074557,0.16828376,0.0,0.5555445,0.26790106,0.31289816,0.0,0.8354494,0.79697454,0.7635236999999999,0.0,0.95548236,0.9441326999999999,0.9256601999999999,0.0,823.1868,795.38464,799.0110000000003,1560.5494,722.8571,-0.507568359375,0.060302734375,0.89263916015625,1.966400146484375,-3.70849609375,-0.037384033203125,100.0,60.0,40.0
814.1201264488934,31.007399150680047,,,,,,,19.699849351622905,19.76748814855317,0.03808700724048067,0.02419771813964553,815.3846153846154,22.809230769230894,0.027973584905660532,30.769230769230827,0.0,36.301369863013704,7.3,132.8125,,,0.03814067336644508,0.023724266514995804,0.0007813626913807874,1.6076650185301555,0.6088256098132748,0.3787017835157647,-3.7412568510864697,2021-09-22 19:48:12,2021-09-22 19:48:12.001,0.6613275,-0.21274963,0.30367896,0.0,0.40418136,-0.24421439,-0.030238112,0.0,0.51134115,-0.10507372,0.35185465,0.0,0.7312021,0.7464012,0.6800034,0.0,0.74407256,0.67104167,0.7574625,0.0,792.1612,808.2784,764.7619,0.0,725.2747,-0.2435302734375,0.039306640625,0.98291015625,1.016845703125,-23.873443603515625,10.52734375,100.0,51.0,49.0
813.9717425431711,30.900935304251355,,,,,,,19.878450453017372,19.94624848109159,0.037963154848231664,0.0244215485796954,815.3846153846154,22.809230769230894,0.027973584905660532,30.769230769230827,0.0,37.41496598639456,7.35,132.8125,,,0.03700870137574458,0.023321016514067885,0.0008116691594379491,1.5869248818300823,0.6052970526483714,0.38142766527822497,-3.7584003286527743,2021-09-22 19:48:13,2021-09-22 19:48:13.000,1.3147497,0.5421722,0.5221906,0.0,0.978367,-0.08050815,0.15279631,0.0,0.62710685,-0.020806546999999998,0.16733906,0.0,0.7305723000000001,0.3918498,0.6234334,0.0,0.77179164,0.5967814,0.58171606,0.0,804.2491,787.7289400000003,765.9707,1085.4945,715.2015,-0.1373291015625,0.0294189453125,1.015869140625,2.31781005859375,-5.794525146484375,1.577606201171875,100.0,44.0,56.0
813.9717425431711,30.90093530425135,,,,,,,19.95983646564846,20.028475450865294,0.03796315484823165,0.02452153486715153,815.3846153846154,22.809230769230894,0.027973584905660532,30.769230769230827,0.0,38.095238095238095,7.35,132.8125,,,0.03632297282880448,0.023239542188093414,0.0008420553135445515,1.5629814277242624,0.6013282211941929,0.3847315204952505,-3.761900046499973,2021-09-22 19:48:14,2021-09-22 19:48:14.038,1.3147497,0.45719573,0.5488974,0.0,0.978367,-0.17181659,-0.13872679,0.0,0.62710685,0.16845852,-0.037482853999999996,0.0,0.7305723000000001,0.38620454,0.53966784,0.0,0.77179164,0.5017269,0.6947145,0.0,840.9158,782.0879,782.0879,820.7692,705.5311,-0.11712646484375,0.03955078125,1.009521484375,1.547698974609375,-2.22808837890625,-0.179443359375,100.0,36.0,64.0
