HRV_MeanNN,HRV_SDNN,HRV_SDANN1,HRV_SDNNI1,HRV_SDANN2,HRV_SDNNI2,HRV_SDANN5,HRV_SDNNI5,HRV_RMSSD,HRV_SDSD,HRV_CVNN,HRV_CVSD,HRV_MedianNN,HRV_MadNN,HRV_MCVNN,HRV_IQRNN,HRV_pNN50,HRV_pNN20,HRV_HTI,HRV_TINN,HRV_ULF,HRV_VLF,HRV_LF,HRV_HF,HRV_VHF,HRV_LFHF,HRV_LFn,HRV_HFn,HRV_LnHF,Time,TimeStamp,Delta_TP9,Delta_AF7,Delta_AF8,Delta_TP10,Theta_TP9,Theta_AF7,Theta_AF8,Theta_TP10,Alpha_TP9,Alpha_AF7,Alpha_AF8,Alpha_TP10,Beta_TP9,Beta_AF7,Beta_AF8,Beta_TP10,Gamma_TP9,Gamma_AF7,Gamma_AF8,Gamma_TP10,RAW_TP9,RAW_AF7,RAW_AF8,RAW_TP10,AUX_RIGHT,Accelerometer_X,Accelerometer_Y,Accelerometer_Z,Gyro_X,Gyro_Y,Gyro_Z,Attention,Meditation,A_M
872.0588235294118,75.78536900475488,,,,,,,55.70263240305086,55.908658351866656,0.08690396445739178,0.06387485671850689,869.2307692307692,79.83230769230764,0.09184247787610612,101.92307692307692,9.558823529411764,51.470588235294116,15.111111111111109,132.8125,,,0.007592218962637486,0.004362409945662744,0.000329048587029368,1.7403726511732192,0.6180737784368028,0.3551387560705158,-5.434730634494682,2021-09-22 20:08:00,2021-09-22 20:08:00.000,0.5367155,0.41933580000000004,0.94829255,0.26812592,0.27837047,0.27803692,0.49567953,-0.06856453400000001,0.68338645,0.36319745,-0.0026985682,0.42508528,0.39400327,-0.06482197,0.28192849999999997,0.33451205,-0.17269602,-0.43109432,0.06542333,-0.17728779,800.6227,793.36993,793.7729,799.0110000000003,821.1722,-0.56378173828125,-0.01617431640625,0.84698486328125,1.772003173828125,-3.529052734375,0.11962890625,19.0,24.0,-5.0
872.6809954751133,75.47247541747956,,,,,,,55.76161653493063,55.96637335259304,0.08648346395625371,0.06389690714482944,869.2307692307692,79.83230769230764,0.09184247787610612,100.0,9.558823529411764,52.20588235294118,15.111111111111109,132.8125,,,0.008043779410032502,0.0047485711219131645,0.00036007533662129893,1.6939368082564847,0.6115814291914287,0.36104146637023016,-5.349911522629261,2021-09-22 20:08:01,2021-09-22 20:08:01.014,0.6200045999999999,-0.18611464,0.44068182,0.83639365,0.36877754,-0.2949604,0.22876014,0.55595887,0.738404,0.38268779999999997,0.13685343,0.74631685,0.4277180999999999,-0.03029192,0.39710203,0.46337542,-0.25067484,-0.48589042,0.10220865,-0.14339697,804.65204,796.99634,793.36993,800.2198,823.5897,-0.56390380859375,-0.018798828125,0.8516845703125,1.8841552734375,-3.192596435546875,0.097198486328125,21.0,17.0,4.0
873.5859728506787,75.3322814207007,,,,,,,41.2440766040411,41.33122256305741,0.08623339174606594,0.04721238422527979,869.2307692307692,79.83230769230764,0.09184247787610612,100.0,8.823529411764708,52.20588235294118,15.111111111111109,132.8125,,,0.008117431780501876,0.0048757629812135024,0.00036747254019201133,1.664853646860737,0.6075618527933121,0.3649340913172376,-5.323478677811705,2021-09-22 20:08:02,2021-09-22 20:08:02.011,0.9799747,-0.15697844,0.5309209,1.1410202,0.62016296,-0.22996727,0.31178808,0.80893785,0.6668561,-0.03568506,0.25166857,0.7766187,0.44470325,-0.098995976,0.5025464,0.38515848,-0.09489933,-0.35630924,0.044305097,-0.02400662,806.6667,803.0403,797.3993,797.8022,722.8571,-0.57049560546875,-0.017333984375,0.84881591796875,2.190704345703125,-3.342132568359375,0.246734619140625,23.0,14.000000000000002,8.999999999999998
871.4366515837105,68.72501614527688,,,,,,,38.3816834831379,38.515079457774334,0.07886404137395309,0.04404414642577257,869.2307692307692,79.83230769230764,0.09184247787610612,100.0,8.088235294117647,52.20588235294118,15.111111111111109,132.8125,,,0.009679145639218263,0.00587879376011218,0.000437594696020598,1.6464509615716754,0.6051155017094065,0.3675271938447369,-5.136403680954336,2021-09-22 20:08:03,2021-09-22 20:08:03.031,0.7695946,-0.2935147,0.3518388,0.93261075,0.5010741,-0.25132748,0.047200378,0.7072776999999999,0.44889942,-0.17796594,0.11916852,0.6136494,0.3226255,-0.11404001,0.3675144,0.28038213,0.015929033999999998,-0.2867936,0.02381847,-0.10421895,792.96704,797.3993,797.8022,801.8315,854.21246,-0.572021484375,-0.018798828125,0.84814453125,1.83929443359375,-2.938385009765625,0.3289794921875,32.0,18.0,14.0
870.5221785513755,66.65370282904706,,,,,,,30.21992713133475,30.32266650301792,0.07656749531639112,0.03471471247478533,869.2307692307692,79.83230769230764,0.09184247787610612,100.0,7.299270072992701,52.554744525547456,15.222222222222221,132.8125,,,0.011394529186010431,0.006946903943767156,0.000505053795383009,1.6402312855115457,0.6045969857012667,0.3686047151043753,-4.969459194376177,2021-09-22 20:08:04,2021-09-22 20:08:04.021,0.501648,-0.37220302,-0.112437025,0.45381323,0.27614772,-0.41486925,-0.25308179999999997,0.25099692,0.39897309999999997,-0.24529131,0.07015307,0.33129832,0.27185982,-0.20202878,0.21642594,0.30234888,-0.12160121,-0.37198728,0.13132779999999994,-0.11445517,802.6374,802.2344400000003,800.6227,801.4286,626.5567599999998,-0.5732421875,-0.01885986328125,0.86065673828125,2.130889892578125,-3.446807861328125,0.2392578125,42.0,18.0,24.0
871.0275126333521,66.25887940496948,,,,,,,30.306187802885283,30.415629927536024,0.07606978935102858,0.03479360567068825,869.2307692307692,79.83230769230764,0.09184247787610612,92.30769230769226,7.299270072992701,53.284671532846716,13.7,132.8125,,,0.012473646896540288,0.0075672038748317546,0.0005357684929135842,1.6483825601722168,0.6062048743930698,0.3677573938477823,-4.8839316490092335,2021-09-22 20:08:05,2021-09-22 20:08:05.022,0.9392065999999999,0.14913632,0.45411476,1.0667183,0.85787183,-0.020070551000000002,0.22637774,0.80686706,0.80273134,0.16928662,0.4310094,0.91987896,0.48197302,-0.18405072,0.38070570000000004,0.5046987000000001,-0.39844159999999995,-0.39129612,0.19742571,-0.16901803,798.60803,803.4432400000003,811.0989,806.26373,721.6484,-0.5714111328125,-0.0137939453125,0.845947265625,2.011260986328125,-2.998199462890625,-0.0,43.0,22.0,21.0
872.0588235294118,66.05112825491341,,,,,,,30.475808910920307,30.58669331761909,0.07574159732435265,0.0349469646870587,876.9230769230769,68.42769230769235,0.07803157894736848,92.30769230769226,7.352941176470589,54.41176470588235,13.6,132.8125,,,0.013777180309986668,0.0082474963598838,0.0005603431391433593,1.6704681892312805,0.6100140901575879,0.3651755203062593,-4.7978455962215865,2021-09-22 20:08:06,2021-09-22 20:08:06.015,0.87642866,0.5386286,0.85352796,1.1320417,0.8380984,0.3152687,0.5740123,0.8624358,0.8102477,0.17913426,0.46888682,0.93166447,0.40182249999999997,-0.113524325,0.47234923,0.46669337,-0.3247715,-0.4983744000000001,0.068698704,-0.1756142,709.5604,807.0696,804.65204,711.5751,703.5165,-0.56829833984375,-0.01654052734375,0.83685302734375,1.435546875,-3.656158447265625,-0.321502685546875,41.0,21.0,20.0
872.5678733031674,65.99731169444723,,,,,,,30.43983226172329,30.5454934783045,0.07563573415167091,0.03488534610664859,876.9230769230769,68.42769230769235,0.07803157894736848,92.30769230769226,7.352941176470589,53.67647058823529,13.6,132.8125,,,0.014646841998171409,0.008648288378994767,0.0005646494401897893,1.6936116554283869,0.6138716329442854,0.3624630422072827,-4.750393852878962,2021-09-22 20:08:07,2021-09-22 20:08:07.001,0.29651657,0.025864176000000003,0.5961464,0.18119237,0.22847553,0.07279738,0.31953615,-0.06336165,0.35229272,0.19459343,0.1597283,0.34081647,0.16736493,-0.08378813,0.4314073000000001,0.30739299999999997,-0.26449877,-0.45996392,0.11780821,-0.21642308,799.0110000000003,796.1905,803.8461,795.38464,774.43225,-0.57391357421875,-0.0172119140625,0.84857177734375,2.55706787109375,-3.69354248046875,-0.07476806640625,37.0,18.0,19.0
873.3031674208147,65.82600256437878,,,,,,,30.44703099240493,30.55138257125185,0.0753758889467757,0.03486421683586263,876.9230769230769,68.42769230769235,0.07803157894736848,92.30769230769226,7.352941176470589,53.67647058823529,13.6,132.8125,,,0.015225985160303181,0.008864274928048246,0.0005528106121485403,1.7176797069013818,0.6178607100288954,0.3597065899692608,-4.7257261332072735,2021-09-22 20:08:08,2021-09-22 20:08:08.002,0.6179861999999999,-0.0506912,0.47030252,0.921236,0.11945937,-0.019418823,0.17795716,0.5769249,0.49138594,0.024535505,0.22001305,0.8121609000000001,0.3708763,-0.08197908,0.46584338,0.21352823,-0.2760277,-0.44293982,0.2797381,-0.35863113,813.5165,794.9817,796.5934,804.65204,724.87177,-0.57183837890625,-0.01458740234375,0.8414306640625,1.727142333984375,-4.14215087890625,0.299072265625,34.0,16.0,18.0
873.7556561085972,65.5827103961239,,,,,,,30.367751099080287,30.47033460995578,0.07505841013745927,0.034755427202986765,876.9230769230769,68.42769230769227,0.07803157894736837,86.53846153846155,7.352941176470589,53.67647058823529,13.6,132.8125,,,0.015455853587167638,0.008889391452722922,0.0005259326825489602,1.7386852260211054,0.6214363372596909,0.3574173910028654,-4.722896684811383,2021-09-22 20:08:09,2021-09-22 20:08:09.005,1.2095743,-0.13572602,0.102682464,0.90963674,1.0123824000000001,-0.2930948,-0.14518192,0.68437374,1.0016154000000002,-0.2666765,0.24951304,0.82442963,0.4024779000000001,-0.10056431,0.40199009999999996,0.31906813,-0.24104825,-0.6119973000000001,0.17823522,-0.28120217,796.5934,805.05493,795.38464,792.5641,747.8388,-0.574951171875,-0.01708984375,0.8409423828125,2.1234130859375,-3.715972900390625,0.291595458984375,43.0,10.0,33.0
874.3778280542986,64.90813580967964,,,,,,,30.425429690648883,30.533390505023398,0.07423351064849835,0.03479666194001373,876.9230769230769,68.42769230769218,0.07803157894736829,84.61538461538464,7.352941176470589,54.41176470588235,13.6,132.8125,,,0.015309545888434773,0.008725036569895449,0.0004791214207727953,1.7546683920223642,0.6245300981009878,0.3559248579050188,-4.7415586195104025,2021-09-22 20:08:10,2021-09-22 20:08:10.017,1.2850157,-0.43584758,0.14015761,0.009698072,1.1468063999999998,-0.117105894,0.07946817,0.08720994,0.97885185,-0.13433422,0.33025113,0.32528698,0.37844690000000003,-0.28252393,0.3546489,0.31526595,-0.33644024,-0.43700100000000003,0.023741167,-0.1741599,815.12823,796.5934,802.2344400000003,822.3810000000003,815.12823,-0.57806396484375,-0.01702880859375,0.8441162109375,1.996307373046875,-3.06549072265625,0.112152099609375,46.0,9.0,37.0
876.2443438914028,63.442554965999676,,,,,,,30.54763509800861,30.637874993941196,0.07240281253542953,0.03486200545654481,876.9230769230769,68.42769230769218,0.07803157894736829,84.61538461538464,7.352941176470589,55.88235294117647,13.6,132.8125,,,0.01487731870584076,0.008476936114565816,0.00043556866930348964,1.755034897606134,0.6253648208981342,0.3563261458510775,-4.770406201710111,2021-09-22 20:08:11,2021-09-22 20:08:11.000,0.30270663,-0.2740543,0.17869589,0.5568121,0.30967116,-0.24508195,-0.27126744,0.46973425,0.36836943,-0.07408735,0.22600979999999998,0.50582707,0.395898,-0.24099328,0.3660119,0.47219923,-0.31812754,-0.47029920000000003,0.05535723,-0.23042873,759.92676,801.02563,783.2967,763.5531,857.03296,-0.57513427734375,-0.0179443359375,0.8424072265625,1.487884521484375,-3.117828369140625,-0.500946044921875,52.0,13.0,39.0
877.5452488687782,62.40174496918733,,,,,,,30.54763509800861,30.637874993941196,0.07110943287497468,0.034810324752355286,876.9230769230769,62.72538461538455,0.07152894736842097,84.61538461538464,7.352941176470589,55.88235294117647,13.6,132.8125,,,0.014181688970227115,0.00816661711910751,0.00038427517822538535,1.7365438789882883,0.6238485987715243,0.35924724178866063,-4.807700517166031,2021-09-22 20:08:12,2021-09-22 20:08:12.007,0.505783,-0.18876119,0.2869915,0.7494957,0.30381262,-0.2827375,-0.0272183,0.7134415,0.30890527,-0.09308407,0.16497274,0.6188538,0.4337215999999999,-0.09796361599999999,0.32497529999999997,0.56092894,-0.14505608,-0.52408624,0.016121674,-0.17304654,741.79486,800.2198,803.4432400000003,732.1245,686.1905,-0.57525634765625,-0.0159912109375,0.84423828125,1.62994384765625,-3.45428466796875,0.13458251953125,55.00000000000001,17.0,38.00000000000001
878.7330316742081,61.5615006311096,,,,,,,30.540460080857844,30.63285677604517,0.07005711451841001,0.034755106477186326,876.9230769230769,57.02307692307691,0.06502631578947367,84.61538461538464,7.352941176470589,55.88235294117647,13.6,132.8125,,,0.013512153611765457,0.007918321117096783,0.0003462381352441815,1.70644173328495,0.6204863744168171,0.36361415822992255,-4.8385760757913205,2021-09-22 20:08:13,2021-09-22 20:08:13.003,0.27705082,-0.061442132999999996,0.48543307,0.46446499999999996,0.16771583,-0.035712644,-0.11360678,0.6141326,0.16869901,-0.14160755,0.09398325,0.5514361,0.41669473,0.038470093,0.45162209999999997,0.5257510999999999,-0.15612772,-0.53153634,-0.0028487720000000003,-0.2241821,787.326,805.05493,795.78754,803.0403,746.63007,-0.580810546875,-0.020263671875,0.83599853515625,1.742095947265625,-3.6785888671875,0.037384033203125,60.0,18.0,42.0
880.7977207977208,60.3492592790899,,,,,,,30.668606993386177,30.757574857781677,0.06851659337223624,0.034819126195751546,884.6153846153845,57.02307692307708,0.06446086956521757,76.9230769230769,7.4074074074074066,56.2962962962963,13.5,132.8125,,,0.012806020806407515,0.00769358590006919,0.00031267173608758914,1.6645061188297574,0.6153108532421535,0.36966572022862376,-4.867368297250796,2021-09-22 20:08:14,2021-09-22 20:08:14.001,0.693659,-0.24684143,0.07557167,0.5587255999999999,0.25077289999999997,-0.23304376,-0.38106292,0.5342423000000001,0.37127402,-0.1676565,-0.10086347,0.7003198,0.27066126,-0.07838032,0.4504669,0.26004514,-0.3509826,-0.47307829999999995,-0.05073008,-0.29919732,803.8461,798.60803,791.3553,800.2198,853.4066,-0.58428955078125,-0.01934814453125,0.84722900390625,1.203765869140625,-3.342132568359375,0.37384033203125,61.0,22.0,39.0
882.1082621082621,59.6571619819391,,,,,,,30.668606993386177,30.757574857781677,0.06763020430095155,0.034767395693684346,884.6153846153845,57.02307692307708,0.06446086956521757,80.76923076923072,7.4074074074074066,56.2962962962963,13.5,132.8125,,,0.012127095531900256,0.007515365397618469,0.00028473386997117785,1.6136401745340538,0.6085701301123772,0.3771411617761095,-4.8908056345216435,2021-09-22 20:08:15,2021-09-22 20:08:15.014,0.11376898,-0.65146923,0.0166794,0.16750126,0.22395435,-0.56307983,-0.14966431,0.46997932,0.49469107,-0.10425196,0.031210747999999996,0.6964929,0.2801482,-0.15636544,0.38190799999999997,0.35007209999999994,-0.24437496,-0.4835031,-0.23664084,-0.3059284,812.71063,800.6227,803.4432400000003,799.0110000000003,757.50916,-0.575439453125,-0.01397705078125,0.8380126953125,2.310333251953125,-3.641204833984375,0.276641845703125,61.0,24.0,37.0
883.1339031339032,58.887327140885475,,,,,,,30.718960082048298,30.81047665835825,0.06667995298551778,0.03478403441770099,884.6153846153845,57.02307692307708,0.06446086956521757,80.76923076923072,7.4074074074074066,56.2962962962963,13.5,132.8125,,,0.011340188991706223,0.0073542707620021346,0.00025688046387616477,1.5419868752043282,0.5983845396424216,0.3880607216991584,-4.9124740784503835,2021-09-22 20:08:16,2021-09-22 20:08:16.023,0.46356046,-0.23575185,0.1448927,0.624922,0.41943642,-0.5856185,0.039127436,0.28833765,0.7551371,-0.11654203,0.16864957,0.6708004,0.36583397,-0.21974681,0.27344579,0.36062968,-0.20406921,-0.49206898,0.026641084,-0.24611811,804.2491,799.41394,798.60803,794.17584,721.2454,-0.57025146484375,-0.014404296875,0.841796875,1.89910888671875,-4.246826171875,-0.34393310546875,60.0,29.0,31.000000000000004
885.1894374282434,56.49225667289073,,,,,,,30.935064965628204,31.03242413390763,0.06381939761619691,0.0349473950519613,884.6153846153845,57.02307692307708,0.06446086956521757,80.76923076923083,7.4626865671641776,57.462686567164184,13.4,132.8125,,,0.010801345164293591,0.007287187809427745,0.00024057323890247745,1.482237791417895,0.5893001567558365,0.3975746402958175,-4.9216375674097375,2021-09-22 20:08:17,2021-09-22 20:08:17.017,0.26909629999999995,-0.29599559999999997,-0.02388245,0.44275293,0.10962028,-0.16726227,-0.08239113,0.26966462,0.56316483,0.14886901,0.07265439,0.5549035,0.42785442,-0.09601014,0.37192082,0.30345002,-0.3369893,-0.48075909999999994,0.03388359,-0.27927506,807.8755,797.3993,798.60803,805.05493,775.64105,-0.57659912109375,-0.010986328125,0.8431396484375,1.854248046875,-3.15521240234375,0.142059326171875,53.0,41.0,12.0
886.1079219288174,54.94198173427613,,,,,,,30.992538428954678,31.097522185605502,0.06200371351458215,0.034976031318501584,884.6153846153845,57.02307692307708,0.06446086956521757,75.0000000000001,7.4626865671641776,58.20895522388061,12.181818181818182,125.0,,,0.010264902743152284,0.007282013456951719,0.00022658922190906328,1.4096242479959953,0.5775395736194431,0.4097117188786353,-4.922347881255909,2021-09-22 20:08:18,2021-09-22 20:08:18.003,0.031256173,0.5090253,0.67690426,0.25079662,0.10271693,0.23059914,0.14331442,-0.041051973,0.28910777,0.24620540000000002,-0.00023693546000000005,0.24448888,0.44385755,-0.13900423,0.22960158,0.10583789999999996,-0.4171558,-0.553763,0.15451285,-0.2567798,805.05493,796.1905,798.60803,807.8755,753.4798599999997,-0.5738525390625,-0.0111083984375,0.83831787109375,1.5850830078125,-2.908477783203125,-0.07476806640625,45.0,49.0,-4.0
887.1986222732492,53.41847864875615,,,,,,,30.75476814527349,30.863181835673128,0.0602102813368704,0.03466503145200028,884.6153846153845,57.02307692307691,0.06446086956521738,75.0000000000001,6.7164179104477615,58.20895522388061,12.181818181818182,109.375,,,0.009953503611408824,0.0073345525918151215,0.000219881586638461,1.3570703170792286,0.5685137639209676,0.4189272705813494,-4.915158865591769,2021-09-22 20:08:19,2021-09-22 20:08:19.000,1.2832018,0.29398453,0.62174016,0.19599722,1.1211853999999999,-0.10922787,0.016797041999999998,0.0027455352,0.7925426999999999,0.11310027,0.11371627,0.10800832,0.2963176,-0.09787229,0.2039667,0.084041126,-0.57308376,-0.45454553,0.08166419999999999,-0.22737703,809.8901400000003,801.4286,801.8315,803.8461,791.3553,-0.57171630859375,-0.01116943359375,0.83441162109375,1.854248046875,-3.671112060546875,0.19439697265625,41.0,61.0,-20.0
888.663967611336,52.647148117638686,,,,,,,30.85651954253177,30.959924395698764,0.0592430322781629,0.03472237051027493,884.6153846153845,57.023076923076744,0.06446086956521717,76.923076923077,6.7669172932330826,57.894736842105274,12.090909090909092,109.375,,,0.009774189928734474,0.007449155865633209,0.00021734139762424068,1.3121204744591053,0.5604245876975763,0.427113667232881,-4.8996545596367636,2021-09-22 20:08:20,2021-09-22 20:08:20.001,1.1343248,-0.234681,0.19206543,1.1554866000000001,0.91566294,-0.65893626,0.0010341882,0.5154810999999999,0.82320136,-0.12807822,0.08710646,0.24537742,0.31114197,-0.079095,0.44572806,0.48900396,-0.55348086,-0.6619991,-0.067222826,-0.24104331,813.5165,799.81683,783.69965,809.8901400000003,636.2271,-0.57757568359375,-0.014404296875,0.84423828125,1.74957275390625,-3.850555419921875,0.04486083984375,39.0,68.0,-29.0
889.8392652123996,51.92045916986764,,,,,,,30.573408101018448,30.684549684081553,0.05834813229721271,0.03435834908197803,888.4615384615386,51.32076923076927,0.05776363636363641,76.923076923077,6.7164179104477615,57.462686567164184,12.181818181818182,109.375,,,0.009712512540661284,0.007643122081208945,0.00021834160209661848,1.270751982954721,0.5526644862200084,0.4349113703013602,-4.873949109905224,2021-09-22 20:08:21,2021-09-22 20:08:21.002,0.671271,0.17238231,0.45154187,1.188043,0.17232366,-0.11878778,0.09446179,0.5071659000000001,0.4239032999999999,0.13301247,0.077610955,0.19421381,0.2645518,-0.15181905,0.300734,0.49155062,-0.40980574,-0.5213085,0.0042162514,-0.24173316,807.47253,806.26373,807.0696,816.7399,782.8938,-0.581298828125,-0.01373291015625,0.85467529296875,2.27294921875,-3.192596435546875,0.37384033203125,43.0,76.0,-33.0
890.0114810562574,51.78686244158021,,,,,,,30.653338716116856,30.769011689284397,0.05818673527685288,0.034441509315967206,888.4615384615386,51.32076923076927,0.05776363636363641,76.923076923077,6.7164179104477615,57.462686567164184,12.181818181818182,109.375,,,0.009868226576793749,0.007887488211735126,0.00022383044929896766,1.2511240983044063,0.5488585192928915,0.4386923088099217,-4.842477545666143,2021-09-22 20:08:22,2021-09-22 20:08:22.033,0.45396012,-0.17182736,0.05168598,0.27613547,0.49537936,-0.0787832,-0.06948849,0.33991247,0.57506156,0.13137314,0.34487182,0.5058579000000001,0.30691352,-0.14855124,0.25377917,0.29661509999999996,-0.2681393,-0.45903206,-0.018930495,0.035424523,805.4579,808.6813400000003,809.0842,805.05493,655.16486,-0.583251953125,-0.01715087890625,0.83404541015625,1.80938720703125,-3.342132568359375,0.396270751953125,47.0,84.0,-37.0
889.8966704936853,51.833130416476116,,,,,,,30.646080911181198,30.761890741669713,0.0582462347990591,0.03443779702443404,888.4615384615386,51.32076923076927,0.05776363636363641,76.923076923077,6.7164179104477615,57.462686567164184,12.181818181818182,109.375,,,0.010241905213451571,0.008227712317402533,0.0002335450674463784,1.2448059458506828,0.5476028537752344,0.4399102170105802,-4.800247271657497,2021-09-22 20:08:23,2021-09-22 20:08:23.001,-0.2626618,0.3081841,-0.22835042,-0.30041599999999996,-0.09237786,-0.11553168,-0.13904867,-0.031440012,0.36048183,0.047088724000000005,0.32614115,0.37516367,0.36655036,-0.14867866,0.18830498,0.28166956,-0.41816527,-0.625816,-0.09548276,0.12391387,777.25275,791.75824,788.9377400000003,786.1172,796.99634,-0.58172607421875,-0.010986328125,0.8375244140625,2.444915771484375,-3.192596435546875,0.276641845703125,51.0,82.0,-31.0
889.9363794100636,52.009816620125505,,,,,,,29.98714684914277,30.097746053498078,0.05844217387157795,0.033695832132428584,884.6153846153845,57.023076923076744,0.06446086956521717,76.923076923077,6.015037593984963,56.390977443609025,12.090909090909092,109.375,,,0.011021309577818808,0.00876802824340071,0.0002513994661409175,1.2569883754781512,0.5499453148747115,0.4375102631044742,-4.736643327590892,2021-09-22 20:08:24,2021-09-22 20:08:24.011,0.7031367,0.23030454,0.0144822,0.5456666,0.13205437,-0.13993758,0.14494905,0.46000072,0.6320005999999999,0.24116926,0.27791208,0.4891735,0.20785108,-0.09297019,0.18007919,0.42609417,-0.4559901,-0.5382637,-0.01781351,-0.31985578,790.14655,797.8022,783.69965,792.96704,984.7619,-0.58099365234375,-0.0125732421875,0.84307861328125,2.213134765625,-2.773895263671875,0.4486083984375,48.0,85.0,-37.0
890.3990746096007,51.61378150562481,,,,,,,29.7997019142152,29.912710219959887,0.057967020606187275,0.033467804228436565,884.6153846153845,57.023076923076744,0.06446086956521717,76.923076923077,6.015037593984963,55.639097744360896,12.090909090909092,109.375,,,0.011864629373477112,0.009253371059084149,0.0002692382525211272,1.2821953532090835,0.5547527452317956,0.4326585210618321,-4.6827673550295925,2021-09-22 20:08:25,2021-09-22 20:08:25.038,0.51669747,-0.56988794,0.029354917,0.2871761,0.27573466,-0.46901566,-0.010635425,0.36275050000000003,0.8578514000000002,0.2123891,0.2663764,0.7857065,0.64240086,-0.15792878,0.4066181,0.60723025,-0.43414354,-0.47783363,0.020232076,-0.30266535,806.26373,797.3993,806.26373,808.6813400000003,771.2088,-0.58349609375,-0.0130615234375,0.83782958984375,1.891632080078125,-3.372039794921875,0.231781005859375,48.0,88.0,-40.0
890.399074609601,51.61378150562482,,,,,,,29.7997019142152,29.912710219959887,0.05796702060618726,0.03346780422843655,884.6153846153845,57.023076923076744,0.06446086956521717,76.923076923077,6.015037593984963,55.639097744360896,12.090909090909092,109.375,,,0.013008620278448362,0.009841535172492682,0.00029194725168176845,1.3218080360884912,0.5621192009045067,0.4252653831398514,-4.621143566622107,2021-09-22 20:08:26,2021-09-22 20:08:26.012,0.24590109999999998,-0.5612614,-0.1925405,-0.16526711,0.23465565,-0.5984109999999999,-0.19054548,0.14704704,0.87371445,0.05374844,0.16024356,0.77912956,0.7318066,-0.15517938,0.34454006,0.7519640999999999,-0.41672334,-0.5536494000000001,0.1759819,-0.24054675,804.65204,805.8608,811.5018299999997,809.8901400000003,712.3810000000003,-0.585693359375,-0.01220703125,0.8326416015625,1.786956787109375,-3.27484130859375,-0.299072265625,47.0,93.0,-46.0
889.3226176808267,52.315775646654146,,,,,,,29.844400799971037,29.949132755741,0.058826543491138326,0.033558576164181224,884.6153846153845,57.023076923076744,0.06446086956521717,76.923076923077,5.970149253731343,56.71641791044776,12.181818181818182,109.375,,,0.014487695483856524,0.010534753308725556,0.00032015418443090296,1.3752287366669411,0.5716735371263004,0.415693420217375,-4.553075648352733,2021-09-22 20:08:27,2021-09-22 20:08:27.032,0.37293172,-0.3495477,-0.30133963,0.23071244,0.2708767,-0.280003,-0.3413353,0.24305587,0.5606251,0.05231985,0.013874221,0.33974528,0.42815372,-0.11407909,0.16152918,0.46380672,-0.34141657,-0.69033915,0.11031807,-0.07596295,768.7912,803.4432400000003,809.8901400000003,772.4176,761.1355599999997,-0.5853271484375,-0.01263427734375,0.83233642578125,1.188812255859375,-4.20196533203125,0.299072265625,47.0,100.0,-53.0
888.8059701492537,52.62699528965882,,,,,,,29.792179586210903,29.89529066341155,0.05921089310507373,0.033519328837550474,884.6153846153845,57.023076923076744,0.06446086956521717,76.923076923077,5.970149253731343,56.71641791044776,12.181818181818182,109.375,,,0.01677964425649335,0.011506964263292705,0.00036179585194886366,1.4582164220341356,0.5857095578086883,0.4016616113756654,-4.4648028387950065,2021-09-22 20:08:28,2021-09-22 20:08:28.001,0.5691313,0.28223276,0.5264618000000001,0.46279794,0.45037046,0.10901161,-0.08993625,0.32589114,0.4928937,0.22843665,-0.0026921062,0.24284622,0.4651978,-0.09416585,0.20724045,0.41516206,-0.49237376,-0.63579273,-0.10179694,0.009692736,784.90845,797.3993,797.3993,790.54944,643.8828,-0.583740234375,-0.0086669921875,0.8382568359375,2.175750732421875,-2.67669677734375,-0.082244873046875,46.0,95.0,-49.0
888.4615384615386,52.55199303773634,,,,,,,30.037570459305538,30.15091088667225,0.05914942939312316,0.033808520863287624,884.6153846153845,57.023076923076744,0.06446086956521717,76.923076923077,6.7164179104477615,56.71641791044776,12.181818181818182,109.375,,,0.018876990021184585,0.012294921740184442,0.0003975127344982464,1.5353485300754264,0.5979516675590888,0.389456632058464,-4.3985689685083385,2021-09-22 20:08:29,2021-09-22 20:08:29.026,0.72958285,0.30312815,0.5526439000000001,0.9072049000000001,0.28004320000000005,-0.032789633,-0.22066827,0.54407704,0.5656073,0.23812884,0.035948287999999995,0.5188564,0.3525271,-0.08032511,0.26828918,0.56505543,-0.13536099999999998,-0.6065461,-0.07872737,-0.10203405,797.8022,799.0110000000003,794.17584,799.0110000000003,713.5897,-0.58203125,-0.0146484375,0.8369140625,1.7645263671875,-3.805694580078125,0.299072265625,46.0,89.0,-43.0
888.4041331802525,52.55196144859657,,,,,,,29.85930437183627,29.97129476039603,0.05915321584611994,0.03361004666305169,884.6153846153845,57.023076923076744,0.06446086956521717,76.923076923077,6.7164179104477615,55.97014925373134,12.181818181818182,109.375,,,0.021932637019657256,0.013379768411579998,0.00044728470261806144,1.6392389124369953,0.6133340903559071,0.3741578397770502,-4.314011532983419,2021-09-22 20:08:30,2021-09-22 20:08:30.001,0.37672174,-0.06402391,-0.05545487,0.55446696,0.3491838,-0.15888269,-0.19300589,0.45122075,0.5843276,0.1519568,-0.037473112,0.50157213,0.3540204,-0.18138038,0.31263423,0.44535798,-0.28130442,-0.6381789000000001,0.06462455,-0.131885,805.05493,798.60803,799.0110000000003,816.7399,1164.8718,-0.586181640625,-0.01324462890625,0.83575439453125,1.801910400390625,-2.818756103515625,0.3289794921875,44.0,83.0,-39.0
888.5189437428244,52.49266675327363,,,,,,,29.85930437183627,29.972194394037547,0.0590788380179627,0.03360570371865795,884.6153846153845,57.023076923076744,0.06446086956521717,76.923076923077,6.7164179104477615,55.97014925373134,13.4,109.375,,,0.023647981983380216,0.01371820762934725,0.0004699490913778098,1.7238390482434658,0.6250104475067476,0.3625689116066911,-4.289031304478853,2021-09-22 20:08:31,2021-09-22 20:08:31.000,-0.17999892,0.5865845999999999,0.63417304,0.051624347,0.22774716,0.37871248,0.37740409999999996,0.14570539,0.25920317,0.13679795,0.18812042,-0.016028075,0.41154528,-0.13176855,0.28836906,0.5301795,-0.63282126,-0.62292606,0.008486117,-0.22110893,815.5311,805.4579,799.81683,820.3663,1139.0842,-0.5853271484375,-0.0181884765625,0.83209228515625,1.8841552734375,-2.6019287109375,0.35888671875,34.0,65.0,-31.0
888.316946211683,52.84281249941815,,,,,,,29.942267083135505,30.056105575203127,0.05948643974965428,0.0337067385811194,884.6153846153845,57.023076923076744,0.06446086956521717,76.923076923077,6.7669172932330826,56.390977443609025,13.3,109.375,,,0.024833463872796988,0.013751136831143243,0.00048090381844338563,1.8059207887856048,0.6356877807265485,0.35200202836915023,-4.286633779658646,2021-09-22 20:08:32,2021-09-22 20:08:32.032,-0.19374163,0.7422941999999999,0.842691,-0.05118668,0.17319873,0.4853988,0.46913130000000003,0.089445494,-0.069763884,-0.03354916,0.21456869,-0.20892301,0.33981925,-0.027752249,0.2819236,0.5705640000000001,-0.6981763000000001,-0.5073922000000001,-0.003330733,-0.26032963,821.1722,798.20514,796.1905,824.7985,720.0366,-0.58221435546875,-0.01678466796875,0.8240966796875,1.338348388671875,-3.117828369140625,-0.680389404296875,25.0,48.0,-23.0
888.3467278989667,52.64490929549965,,,,,,,29.9782662149623,30.091381986604404,0.059261668492898475,0.033746132307892945,884.6153846153845,57.023076923076744,0.06446086956521717,76.923076923077,6.7164179104477615,55.97014925373134,13.4,109.375,,,0.02598165055792986,0.013703732139002006,0.00048813520746164834,1.8959543498361175,0.6467357581121473,0.34111357067645104,-4.290087064342093,2021-09-22 20:08:33,2021-09-22 20:08:33.029,-0.19374163,-0.24336338,0.524991,-0.05118668,0.17319873,-0.18217896,-0.07801956,0.089445494,-0.069763884,0.06147173,0.028139634,-0.20892301,0.33981925,-0.149795,0.31186402,0.5705640000000001,-0.6981763000000001,-0.46425214,0.15993424,-0.26032963,799.41394,803.0403,793.7729,796.99634,716.0073,-0.58642578125,-0.012939453125,0.8311767578125,0.91217041015625,-3.551483154296875,0.067291259765625,17.0,36.0,-19.0
888.5189437428244,52.64500389554468,,,,,,,29.95599685478981,30.067851293426624,0.059250288658766526,0.033714528053394394,884.6153846153845,57.023076923076744,0.06446086956521717,76.923076923077,6.7164179104477615,55.97014925373134,13.4,109.375,,,0.02661853626685713,0.013635685928307129,0.0004895237363277227,1.952123010665575,0.6533158809603443,0.334669422670038,-4.295064957510078,2021-09-22 20:08:34,2021-09-22 20:08:34.016,0.23102829,-0.50665134,-0.052381776,0.33845640000000005,0.2604424,-0.1300846,-0.11432438,0.12655035,0.6129545999999999,0.23183413,-0.06402951,0.6806953,0.5028536,-0.14227118,0.32808653,0.51074505,-0.11052853,-0.48392609999999997,0.029862665,-0.14611839,782.0879,794.17584,806.26373,788.1319,731.7216,-0.58636474609375,-0.01220703125,0.831298828125,0.829925537109375,-0.9271240234375,-2.968292236328125,11.0,30.0,-19.0
888.748564867968,52.593516339505065,,,,,,,29.96342181384665,30.075808968689227,0.059177047838404474,0.033714171812247035,884.6153846153845,57.023076923076744,0.06446086956521717,76.923076923077,6.7164179104477615,55.97014925373134,13.4,109.375,,,0.026952314857074576,0.013552981410743792,0.00048666615975392793,1.9886631612811625,0.6575024287918874,0.3306253374595136,-4.301148725546351,2021-09-22 20:08:35,2021-09-22 20:08:35.000,0.39236546,-0.082217254,0.21735448,0.46949396,0.20475443,-0.15572518,-0.039019447,0.17368455,0.26390088,0.21871038,0.087918624,0.4975114000000001,0.58036184,-0.08613559,0.5352901999999999,0.53104126,-0.08302739999999999,-0.39034608,0.3174093,-0.07917278,717.6189999999997,803.4432400000003,748.6447,730.5128,682.5641,-0.82733154296875,-0.05242919921875,0.584716796875,-0.418701171875,26.101531982421875,5.973968505859375,25.0,41.0,-16.0
888.5189437428244,52.78004557152536,,,,,,,30.42754177229791,30.54208355763471,0.059402273798680176,0.03424523696042316,884.6153846153845,57.02307692307691,0.06446086956521738,76.923076923077,7.4626865671641776,56.71641791044776,13.4,109.375,,,0.02618216397581371,0.013083694438019359,0.00046408110347256085,2.001129275820754,0.659003368590814,0.32931574014403786,-4.336388523444545,2021-09-22 20:08:36,2021-09-22 20:08:36.001,0.5134578,0.208765,0.55518305,0.5745924,0.1768665,-0.089077815,0.1223867,0.26148772,0.2171248,-0.15292282,0.026234357000000003,0.35275650000000003,0.5953866,0.14311904,0.7860882,0.4942736,-0.21162297,-0.28781658,0.6022301,-0.13070266,796.5934,0.0,897.326,587.0696,811.9048,-0.8072509765625,-0.021484375,0.6771240234375,6.6693115234375,-23.708953857421875,3.671112060546875,9.0,46.0,-37.0
888.4041331802526,52.87268665009778,,,,,,,30.405601467722374,30.520556892737964,0.059514228576163314,0.034224966242422064,884.6153846153845,57.02307692307708,0.06446086956521757,76.923076923077,7.4626865671641776,56.71641791044776,14.888888888888891,109.375,,,0.02555254095034928,0.012891962447937041,0.0004487289598883843,1.9820520772955064,0.6569919598101638,0.3314705841163487,-4.35115122785222,2021-09-22 20:08:37,2021-09-22 20:08:37.001,0.5134578,0.20415275,0.55518305,0.5745924,0.1768665,-0.07680327,0.1223867,0.26148772,0.2171248,-0.16908872,0.026234357000000003,0.35275650000000003,0.5953866,0.1656133,0.7860882,0.4942736,-0.21162297,-0.27390268,0.6022301,-0.13070266,734.94507,756.7033,808.6813400000003,744.21246,677.326,-0.81964111328125,0.01531982421875,0.61419677734375,0.83740234375,-4.68048095703125,-5.1739501953125,1.0,61.0,-60.0
888.2893226176808,52.998503840779115,,,,,,,30.42754177229791,30.54252497144362,0.059663560611759876,0.03425408928999804,884.6153846153845,57.02307692307708,0.06446086956521757,76.923076923077,7.4626865671641776,56.71641791044776,14.888888888888891,109.375,,,0.0250313088138396,0.012917384471963906,0.0004374954024168997,1.9378000916646816,0.6520915378483765,0.3365112534844564,-4.349181241371946,2021-09-22 20:08:38,2021-09-22 20:08:38.032,0.5134578,0.20415275,1.0885661,0.5745924,0.1768665,-0.07680327,0.39356104,0.26148772,0.2171248,-0.16908872,0.71533,0.35275650000000003,0.5953866,0.1656133,0.49263227,0.4942736,-0.21162297,-0.27390268,0.36350322,-0.13070266,799.0110000000003,797.3993,806.26373,809.0842,768.3883,-0.801513671875,-0.0067138671875,0.6214599609375,1.98883056640625,-3.42437744140625,-0.35888671875,0.0,73.0,-73.0
888.8059701492537,52.5677852300554,,,,,,,30.58068315361423,30.690810032782306,0.059144275573697926,0.034406478107340946,884.6153846153845,57.02307692307691,0.06446086956521738,76.923076923077,7.4626865671641776,57.462686567164184,13.4,132.8125,,,0.02447622537381424,0.013083186060119649,0.0004278945896988292,1.8708153550168491,0.6443264325874294,0.3444094206622685,-4.336427380036549,2021-09-22 20:08:39,2021-09-22 20:08:39.024,-4.07822e-05,-0.09718218,0.7624107,-0.028203594,0.08151238400000001,0.33276668,0.11423841,0.25903508,0.04698191,0.38742375,0.7349376999999999,0.52243876,0.52308685,0.18077329,0.45565796,0.6208175,-0.373302,-0.44954285,0.34007242,-0.1634386,815.5311,795.38464,805.8608,808.6813400000003,847.7655599999997,-0.8040771484375,-0.00579833984375,0.6229248046875,2.0037841796875,-3.4393310546875,-0.336456298828125,0.0,78.0,-78.0
889.3226176808267,52.02583237055411,,,,,,,30.471374988452364,30.57726629902421,0.058500516388784715,0.03426357812411826,884.6153846153845,57.023076923076744,0.06446086956521717,76.923076923077,7.4626865671641776,56.71641791044776,13.4,132.8125,,,0.024233619981163308,0.013741407104749557,0.00042650376949089576,1.7635471969087682,0.6310586958736625,0.3578348778982571,-4.287341588060996,2021-09-22 20:08:40,2021-09-22 20:08:40.004,-0.03140155,0.15028276,0.84748703,-0.028070385,0.19406939,0.16548036,0.20516066,0.2685178,0.30203158,0.3866122,0.44604978,0.6916663000000001,0.58006185,0.08685589,0.5462825,0.7150468000000001,-0.33107929999999997,-0.43223100000000003,0.19210605,-0.21129160000000002,791.3553,781.28204,795.78754,796.99634,810.293,-0.802490234375,-0.0068359375,0.6239013671875,1.62994384765625,-3.506622314453125,0.306549072265625,13.0,73.0,-60.0
889.9540757749713,51.06184503574745,,,,,,,30.471374988452357,30.57726629902421,0.05737582019755664,0.0342392667418461,884.6153846153845,57.023076923076744,0.06446086956521717,76.923076923077,7.4626865671641776,56.71641791044776,13.4,109.375,,,0.02429120951211185,0.014586311766856794,0.00043170072721387633,1.6653428159479389,0.6179519276237863,0.3710658980877991,-4.227671740258233,2021-09-22 20:08:41,2021-09-22 20:08:41.000,-0.0070455563,0.30700109999999997,0.8506954,0.061530999999999995,0.18277557,0.30620268,0.2821852,0.18537696,0.30203158,0.38726526,0.547913,0.6733144,0.6355743,0.15422644,0.547519,0.76784873,-0.38418850000000004,-0.35877950000000003,0.1624434,-0.26514044,792.1612,787.326,799.81683,799.41394,786.9231,-0.79547119140625,-0.0042724609375,0.628662109375,1.86920166015625,-2.91595458984375,0.366363525390625,18.0,74.0,-56.0
892.0185078079816,48.39550404490525,,,,,,,30.652459073711448,30.758330067879058,0.05425392368128197,0.034363030369219415,892.3076923076924,57.02307692307691,0.06390517241379308,76.923076923077,7.518796992481202,57.14285714285714,13.3,78.125,,,0.024930889821454003,0.016220547564251175,0.0004511010280162382,1.5369943414487282,0.5992636692868544,0.3898932176432121,-4.121476472279527,2021-09-22 20:08:42,2021-09-22 20:08:42.000,-0.0070455563,0.43939236,-0.09847593,1.1008632999999999,0.18277557,0.22334541,0.14870325,0.69198364,0.30203158,0.44949222,0.41004968,0.388049,0.6355743,0.16482717,0.48543593,0.74524444,-0.38418850000000004,-0.2816518,0.16133499,-0.11306707,786.5201400000003,785.3113400000003,799.41394,788.5348,615.6777,-0.80035400390625,-0.00433349609375,0.62432861328125,1.981353759765625,-3.431854248046875,-0.127105712890625,26.0,70.0,-44.0
892.8282244071718,47.47710194968516,,,,,,,30.29204570498085,30.40468715633297,0.05317607648571978,0.03392819007832603,892.3076923076924,57.02307692307691,0.06390517241379308,76.923076923077,6.7669172932330826,56.390977443609025,13.3,70.3125,,,0.025867388496187284,0.018016157330764924,0.000475976042713347,1.4357883327326058,0.5831304623207902,0.4061395743556231,-4.016486294227457,2021-09-22 20:08:43,2021-09-22 20:08:43.000,-0.0070455563,0.70338464,-0.14959422,1.2358066,0.18277557,0.88422674,0.09136795,0.72758764,0.30203158,0.42709988,0.28652890000000003,0.39053124,0.6355743,-0.0072150044,0.37555948,0.7313321,-0.38418850000000004,-0.504479,0.07164021599999999,-0.110396065,786.5201400000003,797.8022,798.60803,778.8644400000003,672.8938,-0.805908203125,-0.001953125,0.62738037109375,2.28790283203125,-4.35150146484375,-2.175750732421875,24.0,56.99999999999999,-32.99999999999999
893.4065934065935,47.27790918324497,,,,,,,30.091605999989405,30.20533481317679,0.05291869293573545,0.03368187141450228,892.3076923076924,57.02307692307691,0.06390517241379308,76.923076923077,6.7669172932330826,56.390977443609025,13.3,70.3125,,,0.02691637047393199,0.02009280473696846,0.000504680177725512,1.339602451041041,0.5664951886934295,0.4228830637426729,-3.907393501289989,2021-09-22 20:08:44,2021-09-22 20:08:44.002,-0.0070455563,1.1729965,0.53592783,1.2850059999999999,0.18277557,1.1649125,0.22502588,0.77876747,0.30203158,0.44123690000000004,0.41921753,0.36621755,0.6355743,-0.13104823,0.16788965,0.75021285,-0.38418850000000004,-0.44038367,0.04741942,-0.10648476,822.3810000000003,795.78754,813.1135,813.91943,818.3516,-0.8021240234375,-6.103515625e-05,0.62176513671875,1.8841552734375,-3.132781982421875,-0.052337646484375,19.0,46.0,-27.0
893.6957779063043,47.34131488933434,,,,,,,29.829772256794662,29.936495211984766,0.0529725171134216,0.03337799393735307,892.3076923076924,57.02307692307691,0.06390517241379308,76.923076923077,6.7669172932330826,55.639097744360896,13.3,70.3125,,,0.02776764859767476,0.022536064040868737,0.000532959254250758,1.232142780004469,0.5462129514739266,0.4433032927173792,-3.7926384066980128,2021-09-22 20:08:45,2021-09-22 20:08:45.000,-0.0070455563,1.0635288999999999,0.8987995999999999,1.2059958999999998,0.18277557,0.6593916,0.51701236,1.1252488999999999,0.30203158,0.23512249,0.50657296,0.83652574,0.6355743,-0.037142776,0.26654315,0.30862537,-0.38418850000000004,-0.48286945,0.15233155,0.104066834,799.41394,797.3993,795.78754,799.0110000000003,784.5055,-0.8016357421875,-0.0023193359375,0.626708984375,1.876678466796875,-3.0804443359375,0.127105712890625,14.000000000000002,28.000000000000004,-14.000000000000002
894.3898207056102,47.20185271871941,,,,,,,29.76960119752909,29.870124450340466,0.05277548069753353,0.03328481665191916,892.3076923076924,57.02307692307691,0.06390517241379308,76.923076923077,6.7669172932330826,54.88721804511278,13.3,70.3125,,,0.028401023727361262,0.024481419299731428,0.0005541342670883627,1.1601052773796017,0.5314903230236263,0.4581397338559953,-3.7098408450884617,2021-09-22 20:08:46,2021-09-22 20:08:46.000,-0.0070455563,0.28233969999999997,0.4832218,0.19242057,0.18277557,0.21269773,0.052728288,0.17451826,0.30203158,0.12385763,0.27247533,0.009520878,0.6355743,-0.023878114,0.23148757,0.24944943,-0.38418850000000004,-0.3917753,0.045621023,-0.117324434,801.4286,799.0110000000003,796.5934,794.17584,749.0476,-0.7987060546875,-0.003173828125,0.626953125,1.74957275390625,-3.1402587890625,-0.0897216796875,10.0,13.0,-3.0
895.920745920746,46.65454959113082,,,,,,,29.837629161965214,29.942365542571782,0.05207441596096038,0.033303871238410485,892.3076923076924,57.02307692307691,0.06390517241379308,71.15384615384619,6.8181818181818175,54.54545454545454,13.2,70.3125,,,0.029325198671492293,0.02661089992462159,0.0005795528094618957,1.1019995097707804,0.518886325153444,0.4708589437225559,-3.6264343755256228,2021-09-22 20:08:47,2021-09-22 20:08:47.022,0.6589761,0.30526856,0.4594785,0.7068266,0.035234015,-0.15369162,0.21985988,0.50622433,0.26608264,-0.16830206,-0.028367327999999997,0.4301265,0.3364541,-0.09356131,0.2891817,0.49382916,-0.54898155,-0.3937002,-0.08752615,-0.21095254,809.8901400000003,785.7143,797.3993,828.4249,1021.4286,-0.7962646484375,-0.00262451171875,0.62359619140625,2.115936279296875,-3.349609375,-0.1495361328125,22.0,4.0,18.0
896.4452214452216,46.47962245262192,,,,,,,29.837629161965214,29.942365542571782,0.051848815009230456,0.033284386427830916,896.1538461538463,51.32076923076927,0.057267811158798324,69.23076923076928,6.8181818181818175,54.54545454545454,13.2,70.3125,,,0.030920484777303282,0.029440773228757076,0.0006156612423517433,1.0502606211137435,0.5070850603543484,0.4828183121029642,-3.52537472090261,2021-09-22 20:08:48,2021-09-22 20:08:48.003,0.88985,0.33909559999999994,-0.032116998,1.1326863999999999,0.75582147,0.15542537,0.2582632,0.89265305,0.9377161,0.10501822,0.18576948,0.96248364,0.39550686,-0.06575089999999999,0.15083502,0.49021038,-0.2591031,-0.50770485,-0.1811722000000001,-0.054327648,818.7546,790.9524,805.4579,811.0989,732.1245,-0.7952880859375,-0.00531005859375,0.6265869140625,1.772003173828125,-3.342132568359375,0.28411865234375,34.0,3.0,31.0
896.9346443030652,45.77290194698641,,,,,,,29.844796066488946,29.953864608511424,0.051032594445666435,0.03327421485617707,892.3076923076924,57.02307692307691,0.06390517241379308,69.23076923076928,6.7669172932330826,54.88721804511278,13.3,70.3125,,,0.032531190604380235,0.031707028511966585,0.0006458954670815161,1.025993041009901,0.5013737308929671,0.4886716681815473,-3.451216903054667,2021-09-22 20:08:49,2021-09-22 20:08:49.019,1.0637206,0.38399705,0.05862987,1.152112,0.91248167,0.43913599999999997,0.05872359,0.9995975,0.94841236,0.2868146,0.29053718,0.9977269,0.44781277,-0.028417125,0.36372027,0.4856271,-0.21350607,-0.5928723000000001,-0.028863644,-0.13533774,820.7692,800.6227,813.1135,834.87177,838.9011,-0.7967529296875,-0.00238037109375,0.628662109375,2.145843505859375,-3.641204833984375,0.0897216796875,45.0,10.0,35.0
897.8021978021977,45.45480160792602,,,,,,,29.994620281495358,30.102009242688,0.050628971191202785,0.03340894058281612,900.0,45.61846153846162,0.05068717948717958,69.23076923076928,6.7669172932330826,54.88721804511278,13.3,70.3125,,,0.03439641751496489,0.03384131312912035,0.0006757439765677005,1.0164031573989625,0.4991247024519716,0.4910696103397219,-3.3860729409449526,2021-09-22 20:08:50,2021-09-22 20:08:50.002,1.2321790000000001,0.47760648,0.80518216,1.1439059,0.9298793,0.3587391,0.38607308,1.034356,0.70083475,0.2881219,0.9446519,0.8430985999999999,0.5217272,-0.07868051,0.44305974,0.47970470000000004,-0.32397473,-0.49011862,0.0140928235,-0.26657190000000003,815.12823,795.78754,806.6667,829.6337,859.85345,-0.75189208984375,-0.01202392578125,0.69415283203125,2.788848876953125,5.06927490234375,3.372039794921875,51.0,24.0,27.0
898.6596736596738,45.528115067436744,,,,,,,30.04881825274595,30.157199546945268,0.050662243340718144,0.033437372493166494,900.0,45.61846153846162,0.05068717948717958,69.23076923076928,6.8181818181818175,55.3030303030303,13.2,85.9375,,,0.037019851113870135,0.036129676770054936,0.0007096334698646317,1.0246383146320586,0.501222196885541,0.4891698755824165,-3.3206406801660955,2021-09-22 20:08:51,2021-09-22 20:08:51.000,1.2321790000000001,1.2891041,1.249573,1.1439059,0.9298793,0.19590901,0.7583008000000001,1.034356,0.70083475,0.29096246,0.9446519,0.8430985999999999,0.5217272,-0.16078283,0.5664494999999999,0.47970470000000004,-0.32397473,-0.42052606,0.05989013,-0.26657190000000003,793.36993,811.9048,798.20514,808.6813400000003,1085.4945,-0.74346923828125,-0.02069091796875,0.6981201171875,0.9869384765625,-4.83001708984375,-4.23187255859375,49.0,38.0,11.0
899.1841491841493,45.406531286583096,,,,,,,30.011214911456502,30.118116461210562,0.05049747743861088,0.033376049765430564,900.0,45.61846153846162,0.05068717948717958,69.23076923076928,6.8181818181818175,54.54545454545454,13.2,85.9375,,,0.0384130459552927,0.03670989733246048,0.0007156656567667793,1.046394807574856,0.5065104237789213,0.484052883397634,-3.3047088781958966,2021-09-22 20:08:52,2021-09-22 20:08:52.000,1.2321790000000001,1.2675717,1.249573,1.1439059,0.9298793,-0.16894156,0.7583008000000001,1.034356,0.70083475,0.21425168,0.9446519,0.8430985999999999,0.5217272,-0.08318107599999999,0.5664494999999999,0.47970470000000004,-0.32397473,-0.39458585,0.05989013,-0.26657190000000003,722.0513,784.90845,770.0,721.2454,683.7729,-0.735595703125,-0.0738525390625,0.6949462890625,1.697235107421875,-2.1533203125,0.142059326171875,51.0,46.0,5.0
899.5337995337994,45.052003073619936,,,,,,,30.273457449325658,30.38824156554998,0.05008372458819112,0.033654608048097195,900.0,45.61846153846162,0.05068717948717958,63.46153846153846,6.8181818181818175,55.3030303030303,12.0,85.9375,,,0.0394379408202159,0.036528161039604885,0.000709806739777475,1.0796585346154202,0.5143459209092768,0.4763968462422144,-3.309671780542433,2021-09-22 20:08:53,2021-09-22 20:08:53.003,1.2321790000000001,1.3273754,1.249573,1.1439059,0.9298793,-0.4559545,0.7583008000000001,1.034356,0.70083475,-0.028086447999999996,0.9446519,0.8430985999999999,0.5217272,0.101119615,0.5664494999999999,0.47970470000000004,-0.32397473,-0.27574086,0.05989013,-0.26657190000000003,786.5201400000003,239.34065,904.57874,797.8022,845.34796,-0.62408447265625,-0.2847900390625,0.7122802734375,0.95703125,-11.0955810546875,-10.190887451171877,48.0,60.0,-12.0
898.7854251012146,45.8404482579348,,,,,,,30.812906065550056,30.92829753455204,0.051002660899594134,0.034282827919778665,900.0,45.61846153846162,0.05068717948717958,69.23076923076928,7.518796992481202,56.390977443609025,12.090909090909092,93.75,,,0.04038552333424125,0.03595133644082762,0.0006982701861655723,1.1233385829957077,0.5242481365912411,0.4666875548716414,-3.325589020517804,2021-09-22 20:08:54,2021-09-22 20:08:54.021,1.6590143,1.357831,1.249573,1.1265523000000002,1.085958,-0.33211428,0.7583008000000001,0.7315706999999999,0.86435485,-0.16864298,0.9446519,0.34897104,0.56481373,0.17435251,0.5664494999999999,0.20349494,-0.25961703,-0.3010972,0.05989013,0.0004326006,814.3223,985.16486,801.4286,811.0989,675.7143,-0.663818359375,-0.21685791015625,0.73651123046875,0.299072265625,2.145843505859375,-0.022430419921875,44.0,55.00000000000001,-11.000000000000007
900.1748251748253,44.50434588901503,,,,,,,30.41487080444138,30.520472372844782,0.04943966954460399,0.033787737619227945,900.0,45.61846153846162,0.05068717948717958,61.53846153846154,6.8181818181818175,56.06060606060606,12.0,85.9375,,,0.041569915345148666,0.035011416046672086,0.0006808198166763521,1.187324594061941,0.5380372497391311,0.4531509348243674,-3.3520810979134352,2021-09-22 20:08:55,2021-09-22 20:08:55.012,1.6590143,1.357831,1.249573,1.1697106000000002,1.085958,-0.33211428,0.7583008000000001,0.76230097,0.86435485,-0.16864298,0.9446519,0.31677616,0.56481373,0.17435251,0.5664494999999999,0.21188878,-0.25961703,-0.3010972,0.05989013,0.0073330869999999986,984.7619,1062.5275,869.92676,815.9341,834.87177,-0.62774658203125,0.03472900390625,0.8155517578125,2.579498291015625,-4.822540283203125,9.488067626953123,42.0,50.0,-8.0
901.1072261072262,43.505258392503826,,,,,,,30.258533387561265,30.36776804956501,0.04827977973325781,0.03357928170022319,900.0,45.61846153846162,0.05068717948717958,61.53846153846154,6.8181818181818175,55.3030303030303,12.0,78.125,,,0.04243462221856517,0.0341377307605974,0.0006654299652446639,1.2430416806598124,0.5494023857353333,0.4419822716191688,-3.3773520324659474,2021-09-22 20:08:56,2021-09-22 20:08:56.001,1.6590143,1.357831,1.249573,1.1134846999999999,1.085958,-0.33211428,0.7583008000000001,0.90897155,0.86435485,-0.16864298,0.9446519,0.5384137,0.56481373,0.17435251,0.5664494999999999,0.31957084,-0.25961703,-0.3010972,0.05989013,-0.09311169999999999,820.3663,854.61536,815.12823,815.9341,725.6777,-0.61517333984375,0.0142822265625,0.8150634765625,1.831817626953125,-3.611297607421875,0.3887939453125,35.0,49.0,-14.0
901.981351981352,42.819687579985306,,,,,,,30.333080269171766,30.44946540987256,0.04747291890893835,0.033629387351013534,900.0,45.61846153846162,0.05068717948717958,61.53846153846154,6.8181818181818175,55.3030303030303,12.0,78.125,,,0.04332189494126475,0.032979728637899636,0.0006446518379089076,1.3135916131062433,0.5630148399834338,0.4286072127486225,-3.411862189965201,2021-09-22 20:08:57,2021-09-22 20:08:57.009,0.18945958,1.357831,0.4393970999999999,0.7726276,0.7448929,-0.33211428,0.12105391,0.68823135,0.9039069,-0.16864298,0.1660931,0.70057803,0.4358019,0.17435251,0.4635284000000001,0.34800202,-0.46502402,-0.3010972,-0.03922027,-0.038907975,817.5458,831.6484,812.71063,811.9048,719.2308,-0.6185302734375,0.0067138671875,0.812255859375,1.54022216796875,-3.058013916015625,-0.3289794921875,29.0,69.0,-40.0
902.1561771561773,42.76367096281602,,,,,,,30.265996338319106,30.381952288724122,0.04740162739628725,0.03354851089500392,900.0,45.61846153846162,0.05068717948717958,61.53846153846154,6.8181818181818175,55.3030303030303,13.2,78.125,,,0.04388223353310891,0.03211313856849947,0.0006294145386250587,1.366488468248134,0.5726897973516527,0.4190959606749208,-3.438490031387693,2021-09-22 20:08:58,2021-09-22 20:08:58.000,0.17971410000000002,0.38719276,-0.14582695,-0.0050096232000000004,0.40827516,0.054326538,0.08038642,0.2520617,0.90609086,-0.14744718,0.22980854,0.4767497000000001,0.46004024,-0.04426126,0.34275094,0.43248415,-0.45453233,-0.5184156,0.018289609,-0.07804025,813.1135,818.3516,801.4286,800.2198,661.2088,-0.6214599609375,0.01171875,0.81591796875,1.495361328125,-3.3795166015625,0.366363525390625,23.0,65.0,-42.0
902.2727272727273,42.820926233932646,,,,,,,30.35540863455761,30.471936543393454,0.047458961065315775,0.033643274053413975,900.0,45.61846153846162,0.05068717948717958,61.53846153846154,6.8181818181818175,56.06060606060606,13.2,78.125,,,0.04437109542266049,0.031427102014971904,0.0006166213529932871,1.411873592465575,0.5806608734391685,0.41126973160901203,-3.4600846368471703,2021-09-22 20:08:59,2021-09-22 20:08:59.016,0.22871114,-0.091275774,-0.11144929999999999,0.16570620000000005,0.11018223,-0.052793678,0.10014191,0.026704356000000002,0.5835679,-0.07913408,0.14961916,0.24378651,0.3597355,-0.041268833,0.17724681,0.32888976,-0.3169591,-0.61784244,0.0057943324,-0.17303473,784.90845,816.337,805.8608,798.60803,718.8278,-0.626220703125,0.01263427734375,0.81060791015625,1.57012939453125,-3.446807861328125,0.0897216796875,27.0,78.0,-51.0
