HRV_MeanNN,HRV_SDNN,HRV_SDANN1,HRV_SDNNI1,HRV_SDANN2,HRV_SDNNI2,HRV_SDANN5,HRV_SDNNI5,HRV_RMSSD,HRV_SDSD,HRV_CVNN,HRV_CVSD,HRV_MedianNN,HRV_MadNN,HRV_MCVNN,HRV_IQRNN,HRV_pNN50,HRV_pNN20,HRV_HTI,HRV_TINN,HRV_ULF,HRV_VLF,HRV_LF,HRV_HF,HRV_VHF,HRV_LFHF,HRV_LFn,HRV_HFn,HRV_LnHF,Time,TimeStamp,Delta_TP9,Delta_AF7,Delta_AF8,Delta_TP10,Theta_TP9,Theta_AF7,Theta_AF8,Theta_TP10,Alpha_TP9,Alpha_AF7,Alpha_AF8,Alpha_TP10,Beta_TP9,Beta_AF7,Beta_AF8,Beta_TP10,Gamma_TP9,Gamma_AF7,Gamma_AF8,Gamma_TP10,RAW_TP9,RAW_AF7,RAW_AF8,RAW_TP10,AUX_RIGHT,Accelerometer_X,Accelerometer_Y,Accelerometer_Z,Gyro_X,Gyro_Y,Gyro_Z,Attention,Meditation,A_M
901.5734265734267,64.60181215537375,,,,,,,32.49004823190861,32.595535679039415,0.07165452114189216,0.0360370517522818,900.0,79.83230769230764,0.08870256410256404,100.00000000000013,10.606060606060606,57.57575757575758,16.5,156.25,,,0.007911490730793226,0.003990351891803429,0.00024198548402441938,1.982654899946092,0.6514824371138548,0.32859093992180305,-5.523875858534733,2021-09-22 20:21:05,2021-09-22 20:21:05.022,0.180841,-0.07946717,0.33457112,0.7185911,0.015678988999999997,-0.22982872,-0.073720545,0.43861058,0.5063912,0.2441161,0.37616262,0.6644043000000001,0.9415440999999999,0.5713261,1.1105177,0.7260818,0.62160236,0.5374920999999999,0.94267994,0.5156729,809.4872,786.5201400000003,792.96704,799.0110000000003,933.1868,-0.40069580078125,0.12042236328125,0.93096923828125,1.2860107421875,-5.540313720703125,-1.31591796875,77.0,36.0,41.0
903.030303030303,64.98536233365455,,,,,,,32.732437116509516,32.82762148801464,0.0719636562755235,0.036247329692779,903.8461538461537,74.13000000000017,0.08201617021276614,100.00000000000013,10.606060606060606,58.33333333333334,16.5,156.25,,,0.00779596996146983,0.0039319359231460285,0.0002266174374008252,1.9827306736046968,0.6521355767579596,0.32890779642418444,-5.538623373079741,2021-09-22 20:21:06,2021-09-22 20:21:06.000,0.089462414,0.22038232,0.70833886,1.3701694,-0.25759795,-0.37892434,0.09318582,1.2579632,0.22102816,0.49908969999999997,0.46581033,1.333732,0.8310306000000001,0.5468673000000001,0.9628781,0.86311686,0.64155215,0.53374064,0.8220735999999998,0.50795114,794.57874,796.99634,819.9634,801.02563,616.4835,-0.48052978515625,0.13531494140625,0.8817138671875,4.14215087890625,8.47869873046875,1.024322509765625,78.0,35.0,43.0
904.3706293706292,65.30732319303054,,,,,,,32.5664219948491,32.674215094930055,0.0722130076675304,0.036010039398905264,907.6923076923076,68.42769230769235,0.07538644067796615,94.23076923076927,10.606060606060606,57.57575757575758,16.5,156.25,,,0.0075553401968271785,0.0038365640364816217,0.0002100455465414025,1.96929860286026,0.6512129719738132,0.3306826963813282,-5.5631780951052665,2021-09-22 20:21:07,2021-09-22 20:21:07.020,1.2954023000000001,0.6159475,0.64049536,1.3948256,1.5375538999999998,0.4826377000000001,0.11233045,1.4720681,1.4473122,0.75222486,0.3104179,1.431762,1.1084279,0.8052308000000001,0.8829271000000001,0.9890005,0.6914,0.5542246999999999,0.6453191999999999,0.65005076,767.5824,791.75824,799.81683,784.1025400000003,1054.0659,-0.47076416015625,0.1439208984375,0.91558837890625,-4.583282470703125,-6.512298583984375,-7.005767822265625,76.0,48.0,28.0
905.3613053613054,65.7604781320713,,,,,,,32.399556223919674,32.516238465297285,0.07263451369376568,0.03578632754907709,907.6923076923076,68.42769230769235,0.07538644067796615,94.23076923076927,10.606060606060606,56.81818181818182,16.5,156.25,,,0.007395985905529473,0.003830025343503287,0.00019670186602187864,1.9310540380822747,0.6474806668988199,0.33529909268713753,-5.564883858708789,2021-09-22 20:21:08,2021-09-22 20:21:08.000,1.2374524,0.8298834999999999,0.64049536,1.3948256,1.5667381999999999,0.6944927,0.11233045,1.4720681,1.4359503999999998,0.62247,0.3104179,1.431762,1.1508356000000002,0.6274940999999999,0.8829271000000001,0.9890005,0.71872145,0.39084333,0.6453191999999999,0.65005076,790.54944,798.20514,763.1502,786.9231,773.22345,-0.4071044921875,0.10455322265625,0.96270751953125,1.83929443359375,-7.693634033203125,-4.164581298828125,69.0,57.99999999999999,11.000000000000007
906.0023310023313,66.19435317725807,,,,,,,32.406526118853265,32.52446532585516,0.07306201199728232,0.03576870059815539,907.6923076923076,74.13,0.0816686440677966,96.1538461538462,10.606060606060606,56.81818181818182,16.5,156.25,,,0.0073016972839256376,0.003881365885024713,0.00018964684545039567,1.8812184937517544,0.6420367067022573,0.34128768605810905,-5.551568155072896,2021-09-22 20:21:09,2021-09-22 20:21:09.016,1.2374524,0.7113397,0.64049536,1.3948256,1.5667381999999999,0.53942347,0.11233045,1.4720681,1.4359503999999998,0.2458661,0.3104179,1.431762,1.1508356000000002,0.38532150000000004,0.8829271000000001,0.9890005,0.71872145,0.3631857,0.6453191999999999,0.65005076,817.1429,806.26373,801.4286,815.12823,778.0586,-0.37164306640625,0.10162353515625,0.9478759765625,1.891632080078125,-3.9776611328125,1.772003173828125,62.0,61.0,1.0
906.635349383441,66.27320564738608,,,,,,,32.53092782817386,32.65023586873371,0.07309797229112595,0.03588093917835497,907.6923076923076,68.42769230769235,0.07538644067796615,96.1538461538462,10.687022900763358,57.25190839694656,16.375,156.25,,,0.0071852673672025075,0.00400497974776391,0.00018439201373048717,1.7940833211988747,0.631691896851031,0.3520973019407541,-5.5202167552127,2021-09-22 20:21:10,2021-09-22 20:21:10.016,0.75242776,0.49821997,0.93229336,1.3948256,1.1036363,0.12217368,0.27142915,1.4720681,1.0095516,0.40687397,0.3663478,1.431762,1.0050569,0.27045497,0.76094157,0.9890005,0.7997331,0.32262316,0.48249620000000004,0.65005076,828.8278,808.6813400000003,819.5604,819.15753,724.4689,-0.37396240234375,0.13726806640625,0.9383544921875,1.55517578125,-5.1739501953125,2.235565185546875,57.99999999999999,65.0,-7.000000000000008
907.5161479741632,66.22993868487315,,,,,,,32.46790369181696,32.588092121188424,0.07297935010051051,0.0357766677367611,907.6923076923076,68.42769230769235,0.07538644067796615,100.0,10.687022900763358,57.25190839694656,16.375,156.25,,,0.00692380372534062,0.004057827474337399,0.00017862911194402949,1.7062834162192184,0.62039804915037,0.3635961313654725,-5.507107553431191,2021-09-22 20:21:11,2021-09-22 20:21:11.006,0.72191375,0.19703831,0.55699635,0.9003568000000001,0.6393559,-0.09327819,0.17709145,0.53096384,0.96964496,0.42937812,0.39662594,1.004098,0.8932800999999999,0.42934388,0.79393744,0.76925814,0.64844704,0.2002233,0.67212623,0.5124628,782.0879,794.57874,798.20514,798.60803,680.54944,-0.35565185546875,0.1234130859375,0.945556640625,2.213134765625,-5.854339599609375,-0.2093505859375,56.00000000000001,55.00000000000001,1.0
908.4556664709337,66.77331376979716,,,,,,,32.71927185962614,32.83209281516108,0.07350200591426834,0.03601636608942105,907.6923076923076,79.83230769230764,0.08795084745762706,100.0,10.687022900763358,58.01526717557252,14.555555555555555,273.4375,,,0.006641338646115551,0.004136926833839689,0.00017453090373951898,1.605379769298794,0.6063600941219356,0.3777050799554953,-5.487802077460638,2021-09-22 20:21:12,2021-09-22 20:21:12.021,0.7441850999999999,0.19162594,0.6955661999999999,0.99948627,0.33821934,-0.038136546,0.33510014,0.5611206,0.7841381,0.47673953,0.52106524,0.8718113000000001,0.7953813,0.32685822,0.7900944000000001,0.77232254,0.40074664,0.29276216,0.7121899,0.32481694,813.5165,801.02563,798.20514,803.0403,817.1429,-0.3426513671875,0.13348388671875,0.96044921875,1.951446533203125,-3.5589599609375,1.861724853515625,56.99999999999999,52.0,4.999999999999994
909.7475044039928,67.93544572647289,,,,,,,32.941099971989196,33.047185235089685,0.07467505587825686,0.036209057801779916,915.3846153846154,68.42769230769235,0.07475294117647065,100.0,10.687022900763358,58.778625954198475,14.555555555555555,273.4375,,,0.006271990000231871,0.004195342309069906,0.00017004078670606031,1.4949888562543423,0.5896183149377098,0.3943964615328197,-5.473780343090482,2021-09-22 20:21:13,2021-09-22 20:21:13.000,0.9742544,0.44696924,0.78389746,0.82070035,0.7067634,0.09833999,0.52491736,0.54510903,0.82697904,0.47010753,0.59514225,0.71259344,0.8208409999999999,0.06193129,0.831987,0.8157741,0.44938344,0.33616644,0.667434,0.31373683,865.09155,796.5934,794.17584,852.6007,703.1135,-0.34088134765625,0.13409423828125,0.95758056640625,1.734619140625,-3.491668701171875,0.157012939453125,56.00000000000001,63.0,-6.999999999999992
910.9219025249561,69.08567437398321,,,,,,,32.913453219345264,33.01492520800302,0.07584149001411293,0.03613202529010828,915.3846153846154,79.83230769230764,0.0872117647058823,100.0,10.687022900763358,58.778625954198475,14.555555555555555,273.4375,,,0.00582558909112864,0.00432065210860344,0.00016685380698767152,1.3483124641135802,0.5648730170072935,0.4189481533708565,-5.444348937052473,2021-09-22 20:21:14,2021-09-22 20:21:14.033,1.2145413,0.7646710999999999,0.5494209,0.7294321,0.8788219999999999,0.6752357,0.43602407,0.35713923,0.80309784,0.74288255,0.4020848,0.44992593,0.7412246,0.35638678,0.8410973,0.8051092,0.49525216,0.28906026,0.5915166999999999,0.28558213,804.2491,807.47253,782.8938,778.46155,691.4286,-0.31854248046875,0.13623046875,0.96063232421875,1.09161376953125,-5.061798095703125,-0.500946044921875,50.0,67.0,-17.0
912.2724603640636,70.28635509324201,,,,,,,32.57986231265156,32.657313503393034,0.07704535448235783,0.035712864005178674,915.3846153846154,79.83230769230764,0.0872117647058823,100.0,9.923664122137405,58.01526717557252,14.555555555555555,273.4375,,,0.005439145236797163,0.004425660333517652,0.00016450768001558292,1.229001962849228,0.5423247934366773,0.4412725201670071,-5.420335783742028,2021-09-22 20:21:15,2021-09-22 20:21:15.004,0.52887774,0.80237716,0.7490653,0.7294321,0.13318972,0.6145224,0.25801995,0.35713923,0.45960858,0.70823586,0.6034678000000001,0.44992593,0.64412564,0.43901622,0.9092982,0.8051092,0.29241928,0.26580226,0.39418042,0.28558213,827.2161,803.0403,795.78754,816.7399,703.5165,-0.298095703125,0.1422119140625,0.963134765625,1.622467041015625,-3.48419189453125,1.4654541015625,45.0,74.0,-29.0
913.3571854502087,70.26813199009467,,,,,,,32.70644490710566,32.78503435074724,0.07693390177409988,0.035809041006212836,915.3846153846154,79.83230769230764,0.0872117647058823,100.0,10.077519379844961,57.36434108527132,14.333333333333336,273.4375,,,0.004991936117178171,0.004609516405191311,0.00016348874036105772,1.082963087311322,0.5112100506155315,0.4720475301560972,-5.379632328736122,2021-09-22 20:21:16,2021-09-22 20:21:16.033,0.44309595,0.40515890000000004,0.6033715999999999,0.41004047,0.23449932,0.23520856,0.040174067,0.572906,0.8666883,0.21170272,0.5246181999999999,0.3956752,0.74645084,0.4102133,0.71208787,0.46303636,0.56693083,0.15896739,0.42585126,0.35881567,817.5458,810.293,791.75824,821.9780000000003,786.1172,-0.28594970703125,0.14111328125,0.94464111328125,2.758941650390625,-5.72723388671875,0.052337646484375,40.0,77.0,-37.0
914.6745562130177,70.41292530718535,,,,,,,35.10715411535594,35.239906420719606,0.0769813971853689,0.03838212605443882,915.3846153846154,74.13,0.08098235294117646,98.07692307692308,10.769230769230768,58.46153846153847,14.444444444444445,273.4375,,,0.004570214859138008,0.00468947384863597,0.00016024883921027548,0.9745687910099656,0.48516402962789706,0.4978243035313203,-5.362434888609148,2021-09-22 20:21:17,2021-09-22 20:21:17.000,0.6507366,0.7647672,0.6074655,0.886811,0.5637629,0.43334058,0.25077692,0.6964047,0.86755747,0.4103519000000001,0.36263615,0.6011209,0.8579472,0.37523487,0.71255213,0.45630217,0.68194044,0.26594266,0.5975007,0.37156036,801.8315,818.3516,730.9158,791.3553,904.17584,-0.25775146484375,0.1334228515625,0.98651123046875,3.21502685546875,-3.416900634765625,0.396270751953125,40.0,73.0,-33.0
917.396449704142,71.15238017573998,,,,,,,32.642724334095405,32.72397095173165,0.07755903153831308,0.035581917005044664,923.0769230769232,74.13,0.08030749999999999,100.0,10.0,57.69230769230769,14.444444444444445,273.4375,,,0.0041820564056777405,0.004778570372702564,0.00015714072434826722,0.875168947927943,0.4586710951366356,0.5240943434094514,-5.343613862422342,2021-09-22 20:21:18,2021-09-22 20:21:18.017,0.40784505,0.7429935000000001,0.7425913000000001,0.35614252,0.5715031999999999,0.49767697,0.46820974,0.6040789000000001,0.7250099,0.41676205,0.36240409999999995,0.8747627,0.48429835,0.29708776,0.6855076999999999,0.5143970999999999,0.424184,-0.2347586,0.6170102,0.0028406908,823.1868,789.7436,796.1905,806.6667,778.8644400000003,-0.2410888671875,0.13702392578125,0.98333740234375,0.95703125,-2.235565185546875,0.321502685546875,47.0,69.0,-22.0
918.3064997018486,70.66616788866887,,,,,,,32.59317549361209,32.65688214956972,0.07695270360344007,0.0354926982485633,923.0769230769232,68.42769230769235,0.07413000000000004,100.0,10.077519379844961,57.36434108527132,14.333333333333336,273.4375,,,0.003813772767804935,0.004984120294139971,0.00015618945248629566,0.7651847352659084,0.4259255777080809,0.5566310435610925,-5.3014983617248586,2021-09-22 20:21:19,2021-09-22 20:21:19.017,0.18569460000000002,0.7197481,0.7425913000000001,0.5902506999999999,0.25118497,0.36960970000000004,0.46820974,0.48477456,0.6629881999999999,0.57190216,0.36240409999999995,0.8742061,0.43358526,0.28728908,0.6855076999999999,0.49806198,0.46203646,-0.22642024,0.6170102,-0.12528847,790.14655,806.26373,808.2784,800.2198,676.5201400000002,-0.247314453125,0.13189697265625,0.98406982421875,2.0635986328125,-2.79632568359375,0.411224365234375,49.0,62.0,-13.0
921.242603550296,70.39571028131977,,,,,,,32.57942910724625,32.65710247969981,0.07641386754154435,0.03536465745471524,923.0769230769232,74.13,0.08030749999999999,98.07692307692308,10.0,57.69230769230769,14.444444444444445,273.4375,,,0.0034696200624171505,0.005018848902477618,0.00015124171959663327,0.6913178957637734,0.4015898435864578,0.5809047415773578,-5.2945546738675855,2021-09-22 20:21:20,2021-09-22 20:21:20.000,0.16361094,0.88620496,1.2204413,0.45676413,0.0057463264000000005,0.43759927,0.9149290999999999,0.31502974,0.5086965,0.5860145999999999,0.8075465000000001,0.4902269,0.54655147,0.30737656,0.71607774,0.4496994000000001,0.33226892,-0.13210739999999999,0.22312704,-0.08006360400000001,808.2784,805.8608,794.17584,799.41394,647.9121,-0.2476806640625,0.12066650390625,0.97894287109375,-0.6878662109375,-4.194488525390625,3.7982177734375,46.0,59.0,-13.0
923.1370192307692,69.2442014948929,,,,,,,32.69275305215584,32.77803721553772,0.07500966817752867,0.0354148434859627,926.9230769230768,74.13,0.07997427385892115,100.0,10.15625,57.8125,14.222222222222221,273.4375,,,0.003259067548446509,0.0051858724160645745,0.00015036709636925512,0.6284511624988516,0.3791682513914416,0.603337656157386,-5.261817193775583,2021-09-22 20:21:21,2021-09-22 20:21:21.024,0.88469917,0.6686970999999999,0.81697065,1.0515808999999998,0.9340818000000001,0.42618138,0.2007035,0.81562513,0.83676654,0.15492299,0.7402665,0.6442311,0.8729374,0.2700829,0.5962236,0.51627,0.2469141,-0.18037274,0.20151757,-0.0038104076000000002,720.4396,778.0586,839.707,742.1978,685.78754,-0.23895263671875,0.13330078125,0.988525390625,1.55517578125,-3.529052734375,0.11962890625,38.0,59.0,-21.0
924.6394230769231,68.63502593209424,,,,,,,32.17561187505346,32.28838492195121,0.0742289634414434,0.034798009983159336,930.7692307692308,68.42769230769252,0.07351735537190106,100.0,9.375,57.8125,14.222222222222221,273.4375,,,0.003024742968925287,0.005340368963872711,0.00014761177721978546,0.566392133088088,0.355320232626106,0.6273396325065923,-5.232460534038753,2021-09-22 20:21:22,2021-09-22 20:21:22.000,0.9363826999999999,0.55556154,0.85934585,1.0515808999999998,0.9689923,0.55313903,0.30345044,0.81562513,0.81989104,0.42850238,0.56444806,0.6442311,0.87956816,0.30441013,0.5883325,0.51627,0.21785037,-0.012620573999999999,0.30613226,-0.0038104076000000002,795.78754,803.0403,782.8938,781.685,790.54944,-0.2413330078125,0.1805419921875,0.9808349609375,1.2261962890625,-4.418792724609375,-3.648681640625,34.0,53.0,-19.0
925.3004807692308,68.50451793866347,,,,,,,32.327299291120354,32.4507140486538,0.07403488851720208,0.03493708256181352,930.7692307692308,68.42769230769252,0.07351735537190106,100.0,9.375,58.59375,14.222222222222221,250.0,,,0.0029318177084405317,0.005543142426718221,0.0001478606337027557,0.5289089622357572,0.3400068013738416,0.6428456041595417,-5.195193713994869,2021-09-22 20:21:23,2021-09-22 20:21:23.003,0.82517123,0.43663338,0.65290946,1.0515808999999998,0.7325323,0.4513434,0.40004474,0.81562513,0.7190721,0.44708549999999997,0.42782384,0.6442311,1.0959301000000001,0.48119777,0.61141485,0.51627,0.82960546,0.41958934,0.30911773,-0.0038104076000000002,775.2381,811.5018299999997,440.0,861.4652,707.1429,-0.302978515625,0.22381591796875,0.95233154296875,0.590667724609375,-1.1663818359375,1.487884521484375,33.0,53.0,-20.0
926.7143709004173,68.70175498835445,,,,,,,32.37972738554372,32.492620632452216,0.07413476810724562,0.034940353146873965,930.7692307692308,68.42769230769252,0.07351735537190106,100.0,9.30232558139535,58.91472868217054,12.9,273.4375,,,0.002878973544535949,0.005741728712522661,0.00014855394322075264,0.5014123252213105,0.3283030486033961,0.6547566385778244,-5.159994944564036,2021-09-22 20:21:24,2021-09-22 20:21:24.001,0.8736130999999999,0.17535555,0.65290946,1.0515808999999998,0.7943359999999999,0.31993455,0.40004474,0.81562513,0.7190721,0.39782506,0.42782384,0.6442311,1.106535,0.5528172,0.61141485,0.51627,0.8639545,0.6718826999999999,0.30911773,-0.0038104076000000002,805.4579,809.8901400000003,842.5274699999999,794.17584,845.7509,-0.30072021484375,0.2166748046875,0.95050048828125,1.33087158203125,-4.598236083984375,0.19439697265625,42.0,51.0,-9.0
927.1033653846154,68.82893574302793,,,,,,,32.50695666696066,32.621191427701156,0.07424084337615769,0.035062925969937465,930.7692307692308,68.42769230769252,0.07351735537190106,94.23076923076927,9.375,59.375,12.8,273.4375,,,0.0029240178662236433,0.0060979440482677935,0.00015342692895631852,0.4795088054398026,0.31868053944239283,0.6645978881453511,-5.09980360588162,2021-09-22 20:21:25,2021-09-22 20:21:25.034,0.8736130999999999,0.47508553,0.65290946,1.0515808999999998,0.7943359999999999,0.055499382,0.40004474,0.81562513,0.7190721,0.15476806,0.42782384,0.6442311,1.106535,0.7027568000000001,0.61141485,0.51627,0.8639545,0.4943172000000001,0.30911773,-0.0038104076000000002,782.0879,790.9524,800.6227,793.7729,720.4396,-0.28594970703125,0.20025634765625,0.9591064453125,0.28411865234375,-5.38330078125,-0.740203857421875,56.00000000000001,50.0,6.000000000000008
929.6875,68.5696570024669,,,,,,,31.95037619018745,32.04640728987342,0.07375559744803163,0.03436679119616801,934.6153846153846,74.13,0.07931604938271604,94.23076923076927,8.59375,58.59375,11.636363636363635,273.4375,,,0.0029645745369667963,0.006307987164038251,0.00015673282637101215,0.4699715550893628,0.3144004600089381,0.6689776362085497,-5.065938644753699,2021-09-22 20:21:26,2021-09-22 20:21:26.001,0.8736130999999999,0.53573245,0.65290946,1.0515808999999998,0.7943359999999999,0.14600249,0.40004474,0.81562513,0.7190721,0.4130170999999999,0.42782384,0.6442311,1.106535,0.574653,0.61141485,0.51627,0.8639545,0.36496127,0.30911773,-0.0038104076000000002,862.674,830.0366,1183.8096,836.4835,700.696,-0.27996826171875,0.106689453125,0.9620361328125,2.9010009765625,-1.92901611328125,-31.843719482421875,69.0,53.0,16.0
930.5889423076924,67.91237316481879,,,,,,,32.38489808831374,32.49671728765761,0.07297784239345076,0.034800432947338755,938.4615384615383,68.42769230769235,0.0729147540983607,94.23076923076927,9.375,59.375,11.636363636363635,273.4375,,,0.0030727183944099412,0.00658516303243628,0.00016319253241484492,0.4666123495006535,0.3128698966279988,0.6705135364780153,-5.022936185940557,2021-09-22 20:21:27,2021-09-22 20:21:27.002,0.8736130999999999,0.6176437,0.65290946,1.0515808999999998,0.7943359999999999,0.20686205,0.40004474,0.81562513,0.7190721,0.32607687,0.42782384,0.6442311,1.106535,0.37007666,0.61141485,0.51627,0.8639545,0.19672593,0.30911773,-0.0038104076000000002,789.7436,770.40295,828.8278,794.57874,711.9780000000003,-0.41180419921875,0.08489990234375,0.93389892578125,2.6617431640625,0.2691650390625,0.01495361328125,68.0,52.0,16.0
931.3100961538463,67.08209901283054,,,,,,,32.44957452748591,32.563556367953325,0.07202982045386203,0.034842932189286024,938.4615384615383,68.42769230769227,0.07291475409836061,88.46153846153835,9.375,59.375,11.636363636363635,273.4375,,,0.0032474483562080782,0.006932812075117346,0.00017308099884360314,0.4684171907476824,0.3136618625118655,0.6696207327728555,-4.971489765242703,2021-09-22 20:21:28,2021-09-22 20:21:28.000,0.8736130999999999,0.6176437,0.65290946,1.0515808999999998,0.7943359999999999,0.20686205,0.40004474,0.81562513,0.7190721,0.32607687,0.42782384,0.6442311,1.106535,0.37007666,0.61141485,0.51627,0.8639545,0.19672593,0.30911773,-0.0038104076000000002,811.5018299999997,823.5897,791.3553,817.9487,819.5604,-0.43505859375,0.0479736328125,0.93548583984375,1.218719482421875,-2.811279296875,1.547698974609375,59.0,48.0,11.0
932.4519230769231,65.6623772026287,,,,,,,32.39928178792958,32.49751379953225,0.070419048508104,0.03474632952765844,938.4615384615383,68.42769230769218,0.07291475409836053,86.53846153846143,9.375,59.375,11.636363636363635,273.4375,,,0.003508386826914318,0.007367631158274495,0.00018836644821415365,0.4761892596881824,0.3170882978652321,0.6658871266287432,-4.91065904123406,2021-09-22 20:21:29,2021-09-22 20:21:29.011,0.8736130999999999,0.12929748,0.65290946,0.5670963000000001,0.7943359999999999,0.042520337000000005,0.40004474,0.3220833,0.7190721,0.503622,0.42782384,0.85301733,1.106535,0.59908605,0.61141485,0.7865541,0.8639545,0.65632284,0.30911773,0.7766719,811.5018299999997,778.46155,863.4798599999997,866.7033,714.3956,-0.41412353515625,0.1195068359375,0.949462890625,-24.785614013671875,0.9271240234375,76.39053344726562,50.0,41.0,9.0
934.0745192307692,63.554818978385065,,,,,,,32.50695666696066,32.59125207004425,0.06804041612303464,0.0348012455084749,938.4615384615383,68.42769230769218,0.07291475409836053,86.53846153846143,9.375,60.15625,11.636363636363635,273.4375,,,0.0037334366237819975,0.007682644633451524,0.00020244918618411158,0.4859572194093149,0.3213346680945472,0.6612406509468719,-4.868791437784551,2021-09-22 20:21:30,2021-09-22 20:21:30.000,0.8736130999999999,0.33595246,0.65290946,0.45909733,0.7943359999999999,0.28182974,0.40004474,0.131573,0.7190721,0.49116194,0.42782384,0.33739284,1.106535,0.56111807,0.61141485,0.6837149,0.8639545,0.51526964,0.30911773,0.7439263,835.2747,814.7253,772.8205,813.91943,689.81683,-0.4124755859375,0.135986328125,0.92730712890625,3.267364501953125,-3.36456298828125,1.9439697265625,42.0,32.0,10.0
937.2501514233796,59.63497804647176,,,,,,,32.3248399170747,32.42834613630634,0.06362760033263855,0.03448902074647171,938.4615384615383,68.42769230769218,0.07291475409836053,88.46153846153835,9.448818897637793,59.842519685039385,11.545454545454545,195.3125,,,0.003937408918069595,0.007903421008822409,0.00021611401658305063,0.4981904562181814,0.32656773860182303,0.6555078173934417,-4.840459574152085,2021-09-22 20:21:31,2021-09-22 20:21:31.002,0.8736130999999999,1.0498583000000001,0.65290946,0.45909733,0.7943359999999999,0.8136256,0.40004474,0.131573,0.7190721,0.8257235999999999,0.42782384,0.33739284,1.106535,0.62003344,0.61141485,0.6837149,0.8639545,0.44868237,0.30911773,0.7439263,807.47253,787.7289400000003,798.60803,797.8022,663.6264,-0.43145751953125,0.11529541015625,0.9239501953125,2.190704345703125,-4.77020263671875,-1.667327880859375,43.0,25.0,18.0
938.643246517262,58.8265752017429,,,,,,,32.2884994447458,32.3942094089508,0.06267192079633319,0.03439911762487922,938.4615384615383,68.42769230769218,0.07291475409836053,92.30769230769226,9.448818897637793,59.055118110236215,11.545454545454545,195.3125,,,0.004322375607326412,0.008364498918495486,0.00024144079975801474,0.5167524856472662,0.33433401788817585,0.6469906331837005,-4.783758848489918,2021-09-22 20:21:32,2021-09-22 20:21:32.042,0.94992656,0.8706894000000001,0.65290946,0.89495116,0.9013585999999999,0.47123876,0.40004474,0.9294838,0.9895879999999999,0.73386496,0.42782384,0.9377081,1.3958633999999999,0.5382845,0.61141485,0.71406513,1.03757,0.52883005,0.30911773,0.31427267,783.2967,793.36993,819.15753,801.8315,664.83514,-0.43621826171875,0.10760498046875,0.9185791015625,2.400054931640625,-3.192596435546875,0.9869384765625,48.0,25.0,23.0
939.1883706844336,58.208380206922506,,,,,,,33.12842059830811,33.257902819243625,0.06197732214731656,0.035273456989427764,938.4615384615383,68.42769230769218,0.07291475409836053,92.30769230769226,10.236220472440944,59.842519685039385,11.545454545454545,195.3125,,,0.004705253455070206,0.008828770742497494,0.00026705383742637066,0.5329454793090683,0.3409337620684084,0.6397160221912539,-4.7297394878175965,2021-09-22 20:21:33,2021-09-22 20:21:33.001,0.7301179,0.24357954,0.65290946,0.66732734,0.69997835,0.17010407,0.40004474,0.75959337,1.0638106999999999,0.42041004,0.42782384,0.9377081,1.280131,0.67993075,0.61141485,0.821283,0.9579134,0.29962328,0.30911773,0.3584935,807.8755,792.1612,820.7692,787.7289400000003,720.4396,-0.41436767578125,0.11566162109375,0.92828369140625,1.33087158203125,-4.0972900390625,1.55517578125,50.0,23.0,27.0
939.5517867958812,57.814071012459706,,,,,,,33.135507649538674,33.26575285130578,0.06153367150694365,0.03526735632374185,938.4615384615383,68.42769230769218,0.07291475409836053,88.46153846153845,10.236220472440944,59.842519685039385,11.545454545454545,195.3125,,,0.0051974119685031855,0.009458230765872912,0.0003002521010466952,0.5495120701914393,0.3475159477715236,0.6324082156201879,-4.660869936044263,2021-09-22 20:21:34,2021-09-22 20:21:34.000,0.6491701999999999,0.66816735,0.65290946,0.6583897,0.59745747,0.39807257,0.40004474,0.20644552,0.908408,0.5198216,0.42782384,0.5441592,1.0344254000000002,0.6408419,0.61141485,0.73778605,0.71289575,0.4139347,0.30911773,0.57514304,765.9707,805.8608,803.0403,770.80585,686.99634,-0.39764404296875,0.11669921875,0.92919921875,3.282318115234375,-4.18701171875,0.590667724609375,53.0,26.0,27.0
940.5372405372406,57.37791421720858,,,,,,,33.13947573621233,33.272604857662174,0.061005467667004834,0.035234623689416975,938.4615384615383,62.72538461538455,0.06683852459016386,84.61538461538464,10.317460317460316,59.523809523809526,11.454545454545455,195.3125,,,0.005811390768790421,0.01021056197169283,0.00034435148268085715,0.5691548403409707,0.3550826557754711,0.6238770728238863,-4.584332607018338,2021-09-22 20:21:35,2021-09-22 20:21:35.010,0.8698929,0.6564394,0.6710589,0.5950225,0.7624658000000001,0.2773529000000001,0.64206195,0.121170655,1.0625091999999998,0.4247651,0.4893951,0.21486439,0.94716716,0.53027695,1.0201065999999999,0.619713,0.89749575,0.47593227,0.62718326,0.6915714,779.2674,792.5641,776.04395,780.07324,724.87177,-0.3927001953125,0.1265869140625,0.94000244140625,2.130889892578125,-3.81317138671875,0.934600830078125,56.00000000000001,30.0,26.00000000000001
941.1477411477409,57.51721088708619,,,,,,,33.24643505380663,33.36369425999698,0.061113902071255326,0.03532541555405765,942.3076923076924,62.72538461538471,0.0665657142857144,84.61538461538464,10.317460317460316,59.523809523809526,11.454545454545455,195.3125,,,0.006427565023938178,0.011028069851212923,0.0003892137372955623,0.5828368074066235,0.3601916252433206,0.6179973890908168,-4.5073114518532575,2021-09-22 20:21:36,2021-09-22 20:21:36.002,0.56017584,0.72327256,0.5663785,0.75398725,0.47280150000000004,0.1661356,0.62648845,0.55203164,0.92962474,0.31907037,0.44925550000000003,0.55499643,1.0364989,0.5424038,1.0407672,0.72325736,0.8646524,0.45637056,0.66258866,0.3731587,829.6337,797.8022,778.8644400000003,838.0952,687.8022,-0.38275146484375,0.1268310546875,0.94073486328125,1.95892333984375,-3.87298583984375,-0.25421142578125,57.99999999999999,36.0,21.999999999999996
942.3076923076924,57.37244663718024,,,,,,,33.267785651139704,33.383140240247876,0.06088504541088514,0.0353045888542707,946.153846153846,68.42769230769218,0.07232195121951207,90.38461538461547,10.317460317460316,59.523809523809526,10.5,195.3125,,,0.007030996566906257,0.011794012495651457,0.00043824045298885764,0.5961496623391436,0.36499535352183604,0.6122545672334773,-4.440163291912149,2021-09-22 20:21:37,2021-09-22 20:21:37.017,0.06560571,0.9616167,0.53558993,0.80520874,0.502252,0.642141,0.6275853,0.64668196,0.33040816,0.42610067,0.17330673,0.55499643,1.1229001,0.42613703,1.0963051000000001,0.61385614,0.8337912000000001,0.37989947,0.7888132,0.22052577,797.8022,787.326,775.2381,780.4762,634.61536,-0.37255859375,0.1185302734375,0.94598388671875,2.145843505859375,-3.6187744140625,0.37384033203125,55.00000000000001,38.0,17.000000000000007
943.6507936507936,57.628308010029286,,,,,,,33.31755050416571,33.43102056615493,0.06106952741180565,0.035307076228131874,950.0,62.72538461538471,0.06602672064777339,92.30769230769238,10.317460317460316,59.523809523809526,10.5,195.3125,,,0.007441515947402682,0.012328097411072048,0.00047479116051556174,0.6036224162796884,0.3675838397924798,0.6089632026226139,-4.395874279383595,2021-09-22 20:21:38,2021-09-22 20:21:38.016,0.6240609,0.96822095,0.53558993,1.1153525,0.72988826,0.601208,0.6275853,1.0542893,0.8276019,0.5956939,0.17330673,0.72087,1.0635383,0.4785319000000001,1.0963051000000001,0.6750099,0.736578,0.2497974,0.7888132,0.26715997,785.7143,793.7729,795.78754,789.34064,898.9377400000003,-0.38421630859375,0.121826171875,0.94427490234375,2.654266357421875,-3.043060302734375,-2.564544677734375,53.0,36.0,17.0
944.3833943833943,57.557073899683935,,,,,,,33.65681305603305,33.785418097828035,0.06094672380094531,0.035638929333364884,953.846153846154,68.42769230769218,0.07173870967741923,90.38461538461547,11.111111111111109,60.317460317460316,10.5,195.3125,,,0.007829000487806432,0.012878929035618115,0.000511255280863097,0.6078921986567716,0.368958589126594,0.6069473994597447,-4.352162711171564,2021-09-22 20:21:39,2021-09-22 20:21:39.023,0.7660942,0.6708114000000001,0.53558993,1.1347896,0.5539193,0.3889695,0.6275853,1.0451263000000002,0.78720784,0.58628017,0.17330673,0.70028466,1.233242,0.53265023,1.0963051000000001,0.64512557,0.8912629000000001,0.39723095,0.7888132,0.30308956,778.0586,791.3553,799.0110000000003,801.4286,1057.6923,-0.4361572265625,-0.0037841796875,0.922607421875,-0.471038818359375,-9.966583251953123,-4.78515625,51.0,28.000000000000004,23.0
944.7496947496946,57.41905168972661,,,,,,,32.974797620402605,33.09082747744185,0.06077699946221144,0.034903210663792865,953.846153846154,68.42769230769218,0.07173870967741923,84.61538461538464,10.317460317460316,60.317460317460316,10.5,195.3125,,,0.008200223199842944,0.013462221552603898,0.0005477017808957278,0.6091285281407982,0.3692106752889951,0.6061293441893321,-4.30786791989987,2021-09-22 20:21:40,2021-09-22 20:21:40.006,0.9881126,0.5723246999999999,0.53558993,0.94700736,0.55550647,0.5978581999999999,0.6275853,0.8066463,0.7617752,0.40110153,0.17330673,0.5408111,1.4014091,0.61730546,1.0963051000000001,0.60048926,0.82682186,0.49814576,0.7888132,0.32061106,675.7143,789.34064,854.61536,696.26373,780.07324,-0.41363525390625,0.00079345703125,0.923828125,2.056121826171875,10.15350341796875,6.3702392578125,45.0,19.0,26.0
946.7076923076922,55.882925093853466,,,,,,,32.984752416292515,33.10708338032442,0.059028700778413865,0.03484153840124502,953.846153846154,68.42769230769218,0.07173870967741923,84.61538461538464,10.4,60.8,10.416666666666666,187.5,,,0.008382587492991228,0.013798852321408891,0.0005737274051410327,0.607484397813698,0.3683817135737252,0.6064052260428583,-4.2831698553926865,2021-09-22 20:21:41,2021-09-22 20:21:41.001,0.9881126,0.5851109,0.53558993,0.94700736,0.55550647,0.6375329000000001,0.6275853,0.8066463,0.7617752,0.46943203,0.17330673,0.5408111,1.4014091,0.5867925,1.0963051000000001,0.60048926,0.82682186,0.47741999999999996,0.7888132,0.32061106,799.41394,831.6484,786.9231,808.2784,775.2381,-0.52117919921875,0.07574462890625,0.87664794921875,1.973876953125,-3.45428466796875,0.37384033203125,44.0,10.0,34.0
947.753846153846,55.49836678140811,,,,,,,33.020900101020565,33.141692943573325,0.05855778587090981,0.03484121983258128,953.846153846154,57.02307692307708,0.059782258064516286,84.61538461538464,10.4,61.6,10.416666666666666,187.5,,,0.008405939912993302,0.013915626601627646,0.0005847836574972215,0.6040647793761654,0.3669698511474383,0.6075008238792176,-4.274742854358582,2021-09-22 20:21:42,2021-09-22 20:21:42.008,0.80058783,0.43915668,0.53558993,0.94700736,0.36411652,0.015348593999999997,0.6275853,0.8066463,1.231658,0.35508034,0.17330673,0.5408111,1.240104,0.6422119000000001,1.0963051000000001,0.60048926,1.0651367,0.7067505999999999,0.7888132,0.32061106,826.8132,813.1135,794.17584,811.9048,753.0769,-0.49017333984375,0.07928466796875,0.896240234375,1.03179931640625,-4.538421630859375,-3.60382080078125,43.0,5.0,38.0
948.7384615384616,55.32309790033744,,,,,,,32.963044778260944,33.086863093143094,0.058312274818737984,0.03474407975914512,953.846153846154,57.02307692307708,0.059782258064516286,84.61538461538464,10.4,60.8,9.615384615384617,187.5,,,0.008295765185686588,0.013861271071018526,0.0005857969948882318,0.5984851708896719,0.364763927779552,0.6094786396082562,-4.278656581559596,2021-09-22 20:21:43,2021-09-22 20:21:43.000,1.0679428999999998,0.5094525,0.53558993,0.94700736,0.8819045,0.054948817999999996,0.6275853,0.8066463,1.1405582,0.32614383,0.17330673,0.5408111,1.2038823,0.65003675,1.0963051000000001,0.60048926,0.90994895,0.68597555,0.7888132,0.32061106,784.5055,808.2784,811.5018299999997,794.9817,761.9414,-0.4696044921875,0.088134765625,0.90594482421875,1.353302001953125,-2.474822998046875,0.94207763671875,39.0,11.0,28.0
949.0461538461535,55.15654723772718,,,,,,,33.394516604724465,33.52715697501626,0.05811787657976052,0.035187452653791515,953.846153846154,57.02307692307708,0.059782258064516286,84.61538461538464,11.2,61.6,9.615384615384617,187.5,,,0.008114217972430761,0.0136681574166961,0.0005771252665767928,0.5936585104382086,0.36289799568314224,0.6112908166940441,-4.292686427624203,2021-09-22 20:21:44,2021-09-22 20:21:44.003,1.0688636999999999,1.0898149,0.53558993,0.48239478,0.8123942,0.8001099,0.6275853,0.4593218,1.1852572000000001,0.71606225,0.17330673,0.7364658000000001,1.2245893,0.52096474,1.0963051000000001,0.75632256,1.0076200000000002,0.5650725000000001,0.7888132,0.44722033,833.663,820.3663,795.38464,813.5165,893.69965,-0.46685791015625,0.10882568359375,0.90472412109375,2.55706787109375,-3.416900634765625,2.086029052734375,38.0,20.0,18.0
949.2923076923075,54.93489874231325,,,,,,,33.20104819232227,33.32991911403217,0.057869318330259975,0.03497452567906372,953.846153846154,57.02307692307708,0.059782258064516286,76.923076923077,11.2,61.6,9.615384615384617,187.5,,,0.007843090309067059,0.013311965251386556,0.0005593397995605261,0.5891759902430737,0.3611931246084649,0.6130479357440366,-4.3190920052292165,2021-09-22 20:21:45,2021-09-22 20:21:45.004,0.41226968,0.49254143,-0.10082406599999999,0.19738899,0.27678964,0.14306971,0.13334838,0.062889524,1.014153,0.44088233,0.39099967,0.54696596,1.1530375,0.6093984,0.9892204,0.7432217,1.014149,0.48445618,0.7564319,0.47800022,813.1135,802.2344400000003,806.26373,813.1135,824.3956,-0.45330810546875,0.113525390625,0.9105224609375,2.250518798828125,-3.760833740234375,-0.112152099609375,39.0,29.0,10.000000000000004
950.276923076923,54.0279101873614,,,,,,,33.458757478344225,33.579708270889924,0.05685491131619109,0.03520948122154473,953.846153846154,57.02307692307708,0.059782258064516286,76.923076923077,11.2,62.4,9.615384615384617,187.5,,,0.0074905315931272955,0.012806559085008322,0.0005322879005101321,0.5848980622668504,0.35961378131590443,0.6148315484619205,-4.357797810786948,2021-09-22 20:21:46,2021-09-22 20:21:46.012,0.24432528,0.17341332,0.23138879,0.18490733,0.06952421,0.08970525,0.16117819,-0.031412646,0.82969713,0.24243064,0.5534549,0.49792075,1.1341785,0.48743739999999997,0.7675881999999999,0.6096853,0.8706264000000001,0.34553066,0.7582479,0.46348017,796.5934,788.9377400000003,797.3993,796.5934,909.41394,-0.45025634765625,0.10894775390625,0.91302490234375,1.428070068359375,-3.596343994140625,0.171966552734375,37.0,35.0,2.0
951.3846153846154,53.12886299575766,,,,,,,33.458757478344225,33.579708270889924,0.055843727275618496,0.03516848700020011,953.846153846154,57.02307692307708,0.059782258064516286,76.923076923077,11.2,62.4,9.615384615384617,187.5,,,0.0072321052597767626,0.012412197582458862,0.0005100329689877092,0.5826611453557025,0.3588361991938937,0.6158574362716973,-4.3890756138586005,2021-09-22 20:21:47,2021-09-22 20:21:47.035,0.12892918,0.30708432,0.6927104000000001,-0.08973019,-0.16492075,0.07563401,0.5384403,0.060975485,0.6260960999999999,0.1186595,0.6722448000000001,0.16729948,1.0195054000000001,0.6514076999999999,0.6169906999999999,0.4965954000000001,0.8011851999999999,0.5428074,0.9523929,0.40505677,761.9414,798.60803,780.4762,794.57874,826.0073,-0.4390869140625,0.1060791015625,0.91351318359375,1.79443359375,-3.611297607421875,-0.052337646484375,45.0,33.0,12.0
952.8535980148883,52.27280356116928,,,,,,,33.47973813716874,33.61080470003821,0.0548592183207063,0.03513628768041407,953.846153846154,57.02307692307691,0.0597822580645161,76.923076923077,11.29032258064516,62.096774193548384,9.538461538461537,187.5,,,0.00699290140090925,0.012022005581387562,0.00048765052189444835,0.581675108497341,0.3585633012186437,0.61643225914365,-4.421016510100795,2021-09-22 20:21:48,2021-09-22 20:21:48.002,0.86516416,0.46850234,0.42982529999999997,0.6894513000000001,0.73035556,0.19329523,-0.018533995,0.52055335,0.7210094,0.25069305,0.10988445,0.39036614,0.9433273000000001,0.57226354,0.77185905,0.6864898,0.84565085,0.53747666,0.65851635,0.44318315,781.685,783.2967,820.3663,813.91943,696.26373,-0.4366455078125,0.11041259765625,0.9149169921875,2.415008544921875,-1.495361328125,0.897216796875,57.99999999999999,25.0,32.99999999999999
953.7841191066997,52.21320944572745,,,,,,,33.59449336014302,33.71295190618582,0.054743215366837496,0.035222324095317434,953.846153846154,57.02307692307691,0.0597822580645161,71.15384615384619,11.29032258064516,62.096774193548384,8.857142857142858,187.5,,,0.006693688164183392,0.011490464394188887,0.00045887819329337595,0.5825428750789754,0.3590450637209481,0.6163410095304528,-4.466237770689412,2021-09-22 20:21:49,2021-09-22 20:21:49.002,0.3640713,0.47338727,0.40817297,0.7734104,0.23212892,0.22198308,-0.0005675108,0.013793125,0.51175827,0.0338279,0.19849727,0.31950486,0.80203706,0.45974407,0.7743926999999999,0.62846106,0.8866337,0.51450455,0.65846074,0.21032682,873.95605,815.12823,855.42126,789.7436,1067.7656,-0.83856201171875,0.14996337890625,0.57086181640625,-0.814971923828125,31.03622436523437,0.7476806640625,67.0,32.0,35.0
954.3424317617863,51.66903954827604,,,,,,,33.91516076329627,34.0408444653409,0.05414098527809477,0.03553772695686011,953.846153846154,57.02307692307691,0.0597822580645161,69.23076923076928,12.096774193548386,62.096774193548384,8.857142857142858,187.5,,,0.006506556215445666,0.011122790129960506,0.00043959313697304,0.5849751851308884,0.360096187260511,0.6155751498756983,-4.4987591106649205,2021-09-22 20:21:50,2021-09-22 20:21:50.000,0.3640713,0.25067657,0.33494425,0.7734104,0.23212892,-0.00822674,0.004422784,0.013793125,0.51175827,-0.23939339999999998,0.18608084,0.31950486,0.80203706,0.56040025,0.76422393,0.62846106,0.8866337,0.49387622,0.64026725,0.21032682,807.0696,796.99634,793.7729,807.8755,791.75824,-0.83770751953125,0.1248779296875,0.56353759765625,5.21881103515625,-3.2598876953125,-2.041168212890625,73.0,25.0,48.0
955.2,50.167347358427286,,,,,,,33.982356222798025,34.101791266623195,0.05252025477222288,0.03557616857495605,953.846153846154,57.02307692307691,0.0597822580645161,69.23076923076928,12.0,62.4,8.928571428571429,187.5,,,0.006373172890068108,0.010825628968335794,0.00042456183308881235,0.5887115574262882,0.361632035838006,0.6142771129192336,-4.525838903471049,2021-09-22 20:21:51,2021-09-22 20:21:51.000,0.3640713,0.9130574,0.95075727,0.7734104,0.23212892,0.89539313,0.9105780000000001,0.013793125,0.51175827,0.38702056,0.9871555000000001,0.31950486,0.80203706,0.64287287,0.87984324,0.62846106,0.8866337,0.74777645,0.8438323,0.21032682,749.0476,808.2784,774.43225,796.99634,719.6337,-0.81988525390625,0.05780029296875,0.56353759765625,1.0467529296875,-3.626251220703125,-5.480499267578125,74.0,23.0,51.0
956.2655086848636,48.93012224517395,,,,,,,34.113165886282225,34.23604962676054,0.051167925435757634,0.035673320407841026,957.6923076923076,51.32076923076927,0.05358795180722895,69.23076923076928,12.096774193548386,62.903225806451616,8.857142857142858,179.6875,,,0.006314569731777229,0.010615353058258841,0.0004142277609848049,0.5948525401954895,0.36407489160116596,0.6120422575341415,-4.545453924063605,2021-09-22 20:21:52,2021-09-22 20:21:52.005,0.55486333,0.5776720999999999,0.85152215,0.59484404,0.76482266,0.55638266,0.69370764,0.4533272,1.0944104,0.41269034,1.0614233,0.75402814,1.1424128,0.65033096,0.84741247,0.8363059000000002,1.0928253,0.72053105,0.79170597,0.68610066,801.8315,804.65204,780.07324,808.6813400000003,888.0586,-0.7496337890625,-0.0450439453125,0.692626953125,2.355194091796875,-13.27880859375,-6.9683837890625,74.0,24.0,50.0
958.8089330024814,46.56057546419222,,,,,,,34.21173870731213,34.330938922149556,0.04856084863372015,0.03568149766834055,961.5384615384617,51.32076923076927,0.053373600000000035,69.23076923076928,12.096774193548386,63.70967741935484,8.857142857142858,164.0625,,,0.006358420872595697,0.010586028170319638,0.00041302900759514135,0.6006427311825026,0.3663217003122581,0.6098828493122195,-4.548220244457908,2021-09-22 20:21:53,2021-09-22 20:21:53.000,0.3072964,0.33811846,0.6776206,0.5083993,0.5982373000000001,0.30124959999999995,-0.37805828,0.78573173,1.2387363,0.541982,0.6146754,0.8494858000000001,1.1426786,0.7387215,0.82863927,0.7556908,1.0876695,0.5715049,0.575925,0.71174544,778.8644400000003,808.6813400000003,765.56775,805.4579,886.8498,-0.69000244140625,-0.06573486328125,0.73150634765625,0.007476806640625,-5.72723388671875,2.1533203125,72.0,26.0,46.0
959.8014888337468,45.43783472645121,,,,,,,34.02137825091859,34.154753517350734,0.047340867101240525,0.035446265344157686,961.5384615384617,45.61846153846162,0.04744320000000009,63.46153846153846,12.096774193548386,63.70967741935484,8.857142857142858,164.0625,,,0.006450751205821131,0.010626341855131213,0.0004162550270356107,0.6070528591837288,0.3687545216258874,0.6074504321118457,-4.544419279898207,2021-09-22 20:21:54,2021-09-22 20:21:54.007,0.6305155,0.7738409,0.87242067,0.76204956,0.6200814,0.6502734,0.27958596,0.82835823,0.9304001000000001,0.71485364,0.45369357,0.8529263000000001,1.1104401000000002,0.69766957,0.85553163,0.82623357,1.0530003000000001,0.24937834,0.5066702000000001,0.61942667,815.5311,796.1905,793.7729,812.3077,715.6044,-0.68621826171875,-0.01873779296875,0.75567626953125,1.51031494140625,-4.373931884765625,1.398162841796875,69.0,31.0,38.0
959.863523573201,45.35010489641146,,,,,,,34.56148955629977,34.70278911798054,0.04724640928909407,0.036006670435439314,961.5384615384617,45.61846153846162,0.04744320000000009,63.46153846153846,12.903225806451614,64.51612903225806,8.857142857142858,164.0625,,,0.006585823751767539,0.0106937811304333,0.0004231923670110996,0.6158554838031072,0.3720216448878278,0.6040729597639913,-4.538092909241317,2021-09-22 20:21:55,2021-09-22 20:21:55.000,0.84029865,0.7831915,0.94623613,0.6908648000000001,0.6673212,0.3832902,0.92679113,0.45004913,0.6827075,0.63102347,0.5685433000000001,0.4198805000000001,1.0502559999999999,0.5232996,0.84424484,0.8345488999999999,1.1288956,0.21827713,0.63411605,0.44087562,780.07324,809.4872,789.7436,782.0879,761.9414,-0.6837158203125,-0.00537109375,0.748291015625,2.026214599609375,-4.02252197265625,0.500946044921875,67.0,35.0,32.0
960.1116625310173,45.146042321890604,,,,,,,34.70733392582615,34.84725004520517,0.04702165808805819,0.0361492681323459,961.5384615384617,45.61846153846162,0.04744320000000009,61.53846153846154,12.903225806451614,65.32258064516128,8.857142857142858,164.0625,,,0.006719400991432614,0.010778680145481105,0.0004313180452091463,0.6233973826795186,0.3747700033435826,0.6011735271212192,-4.53018515648125,2021-09-22 20:21:56,2021-09-22 20:21:56.004,-0.2832622,-0.11389983,0.27017063,-0.23506097,0.3253638,-0.14441365,-0.20319825,-0.07360660000000001,0.29690886,-0.052187882000000005,0.2511244,0.25101039999999997,0.98829687,0.63788307,0.88870955,0.72851443,0.58844066,0.4019771,0.6034338,0.07202395,799.81683,800.2198,786.1172,785.7143,640.65936,-0.68927001953125,0.007568359375,0.7525634765625,1.831817626953125,-3.925323486328125,0.6878662109375,67.0,40.0,27.0
960.6079404466499,44.730961788746356,,,,,,,34.6240695101735,34.757514488408304,0.04656526341844309,0.03604391349719063,961.5384615384617,45.61846153846162,0.04744320000000009,61.53846153846154,12.903225806451614,64.51612903225806,8.857142857142858,164.0625,,,0.006940247236712857,0.011000266073404506,0.0004460250097530272,0.6309163060603041,0.37746350704920395,0.5982782556473114,-4.5098358179849845,2021-09-22 20:21:57,2021-09-22 20:21:57.001,0.33072826,0.43117014,0.012009282,-0.23506097,0.34020382,0.18424621,-0.09015884,-0.07360660000000001,0.6684649,0.48809359999999996,0.13553368,0.25101039999999997,0.8886449000000001,0.68995315,0.91188383,0.72851443,0.64845866,0.39695352,0.6968701,0.07202395,797.3993,770.40295,850.1831699999997,827.2161,780.87915,-0.67425537109375,0.009033203125,0.757568359375,2.213134765625,-4.246826171875,2.205657958984375,63.0,50.0,13.0
961.6625310173697,43.91027941880308,,,,,,,34.76965138355446,34.89915026969377,0.045660798879570745,0.03615577217797045,961.5384615384617,45.61846153846162,0.04744320000000009,61.53846153846154,12.903225806451614,65.32258064516128,8.857142857142858,164.0625,,,0.007396200787211715,0.01156068975119044,0.0004768892799130887,0.6397715833910435,0.3805847784814981,0.594876028197826,-4.460144750459917,2021-09-22 20:21:58,2021-09-22 20:21:58.000,0.8580201,1.1043931,-0.17359462,-0.23506097,0.58918566,0.6420018,-0.064362936,-0.07360660000000001,0.7164111,0.6803313,-0.13306579,0.25101039999999997,0.84588695,0.51336294,0.9927199000000001,0.72851443,0.72772264,0.18479896,0.6018992,0.07202395,792.5641,790.14655,791.75824,790.54944,954.1392,-0.57574462890625,0.12445068359375,0.8345947265625,-1.203765869140625,-7.19268798828125,11.55914306640625,66.0,55.00000000000001,10.999999999999993
962.7171215880893,43.42622112761653,,,,,,,34.456937064376056,34.5921667396378,0.04510797632432364,0.035791341289886085,961.5384615384617,45.61846153846162,0.04744320000000009,63.46153846153846,12.096774193548386,64.51612903225806,8.266666666666667,164.0625,,,0.007904402060394864,0.012236687856572328,0.0005116343670210228,0.6459592786089913,0.3827292686284029,0.5924975169527281,-4.403316638469971,2021-09-22 20:21:59,2021-09-22 20:21:59.005,0.63953507,1.0206724,-0.17359462,0.37953478,0.61849695,0.47913477,-0.064362936,0.5150249,0.8816738000000002,0.59776103,-0.13306579,0.35099682,0.9872572000000001,0.48185292,0.9927199000000001,0.43980810000000004,0.7537294,0.22264723,0.6018992,0.47505516,824.7985,806.26373,792.1612,805.4579,703.91943,-0.46551513671875,0.16351318359375,0.8929443359375,2.011260986328125,-6.10107421875,0.067291259765625,68.0,56.00000000000001,11.999999999999993
963.2754342431763,43.45716559357335,,,,,,,34.456937064376056,34.59421851690253,0.04511395603866579,0.03577059669485717,961.5384615384617,45.61846153846162,0.04744320000000009,69.23076923076917,12.096774193548386,64.51612903225806,7.75,164.0625,,,0.008458446401392842,0.013003231872693307,0.0005503043293322633,0.6504880082278252,0.3842655409004032,0.5907342426608103,-4.342557346826057,2021-09-22 20:22:00,2021-09-22 20:22:00.001,0.7205676,0.47717208,-0.17359462,0.6490468,0.77252233,-0.0048313797,-0.064362936,0.592513,1.0940025,0.4857534000000001,-0.13306579,0.7173997,0.9166664000000001,0.55231154,0.9927199000000001,0.41631553,0.71787304,0.29046669999999997,0.6018992,0.4364672000000001,712.7839,778.46155,800.6227,722.8571,715.2015,-0.43084716796875,0.15435791015625,0.9248046875,-3.46923828125,-4.717864990234375,2.594451904296875,67.0,61.0,6.0
963.4146341463414,43.60713889079831,,,,,,,35.02974637710846,35.173971636092446,0.04526310619044888,0.036359989910416377,961.5384615384617,45.61846153846162,0.04744320000000009,69.23076923076917,13.008130081300814,65.85365853658537,7.6875,164.0625,,,0.009279423253552264,0.014216422881548462,0.0006082975754406166,0.6527256069173388,0.38497211786428825,0.5897916579103064,-4.253357441699083,2021-09-22 20:22:01,2021-09-22 20:22:01.005,1.0303273000000002,0.83649224,0.8781213,0.7992338000000001,1.1460247,0.37740362,0.24297215,0.8200700000000001,1.0928638000000002,0.64662695,0.53142345,0.7161677,0.7320017,0.5057127,0.80666304,0.47573003,0.7734698,0.33634186,0.55367714,0.50171393,810.696,794.57874,765.56775,806.6667,839.707,-0.40997314453125,0.13568115234375,0.93182373046875,2.213134765625,-4.478607177734375,-0.4486083984375,64.0,66.0,-2.0
963.1644777986239,43.750498881850824,,,,,,,35.02974637710845,35.173971636092446,0.045423704767274496,0.03636943345042297,961.5384615384617,45.61846153846162,0.04744320000000009,69.23076923076917,13.008130081300814,65.85365853658537,7.6875,164.0625,,,0.009928363479405915,0.015241384728981866,0.0006554174155207362,0.651408231991342,0.3844452974278081,0.5901756817726519,-4.183740871369541,2021-09-22 20:22:02,2021-09-22 20:22:02.021,1.0783292,0.8820522,0.6680893,0.8404959000000001,1.220267,0.46879435,0.2282408,0.89384925,1.0928638000000002,0.55621487,0.49207127,0.69324636,0.70978403,0.6620742,0.8866530999999999,0.48499468,0.7521736,0.36600882,0.6506016,0.5091303,821.5751,802.6374,795.38464,816.337,859.0476,-0.3900146484375,0.14117431640625,0.92962646484375,1.413116455078125,-4.149627685546875,1.495361328125,64.0,67.0,-3.0
963.2895559724827,43.70126065105107,,,,,,,35.02974637710845,35.17214825299404,0.04536669206065744,0.03636471106732222,961.5384615384617,45.61846153846162,0.04744320000000009,69.23076923076917,13.008130081300814,65.85365853658537,7.6875,164.0625,,,0.010671673434031354,0.016486441947786833,0.0007094620803490101,0.6472999733859456,0.3829422721985481,0.591599394320109,-4.105216935990337,2021-09-22 20:22:03,2021-09-22 20:22:03.001,0.406497,0.63099545,0.8880235999999999,0.8404959000000001,0.47466254,0.21348868,0.38956009999999996,0.89384925,0.5646358,0.32417282,0.5539936,0.69324636,1.2400501,0.43529052,0.79644954,0.48499468,0.92572486,0.14501457,0.9176030999999999,0.5091303,782.8938,786.1172,790.54944,789.34064,815.5311,-0.33294677734375,0.206787109375,0.95111083984375,2.788848876953125,-5.2337646484375,13.495635986328125,62.0,68.0,-6.0
963.9149468417763,43.44878766300415,,,,,,,35.02974637710846,35.172148252994035,0.0450753334672962,0.036341117535195235,961.5384615384617,45.61846153846162,0.04744320000000009,69.23076923076917,13.008130081300814,65.85365853658537,7.6875,164.0625,,,0.011868505363288472,0.01852271250250629,0.0007935117282552343,0.6407541747291361,0.3805870859804718,0.5939673918493877,-3.9887575970705567,2021-09-22 20:22:04,2021-09-22 20:22:04.008,0.45978805,0.46585402,1.0227553,0.7128960999999999,0.39826453,0.18813239999999998,0.45712054,0.36994252,0.78046745,0.32383308,0.48700118,0.55182755,1.0699944,0.29302670000000003,0.670112,0.8431296999999999,0.7852306,0.3559732,1.0430636,0.54712915,784.90845,803.8461,792.1612,789.34064,722.0513,-0.2557373046875,0.20257568359375,0.96759033203125,2.392578125,-7.0281982421875,-0.530853271484375,59.0,70.0,-11.0
