HRV_MeanNN,HRV_SDNN,HRV_SDANN1,HRV_SDNNI1,HRV_SDANN2,HRV_SDNNI2,HRV_SDANN5,HRV_SDNNI5,HRV_RMSSD,HRV_SDSD,HRV_CVNN,HRV_CVSD,HRV_MedianNN,HRV_MadNN,HRV_MCVNN,HRV_IQRNN,HRV_pNN50,HRV_pNN20,HRV_HTI,HRV_TINN,HRV_ULF,HRV_VLF,HRV_LF,HRV_HF,HRV_VHF,HRV_LFHF,HRV_LFn,HRV_HFn,HRV_LnHF,Time,TimeStamp,Delta_TP9,Delta_AF7,Delta_AF8,Delta_TP10,Theta_TP9,Theta_AF7,Theta_AF8,Theta_TP10,Alpha_TP9,Alpha_AF7,Alpha_AF8,Alpha_TP10,Beta_TP9,Beta_AF7,Beta_AF8,Beta_TP10,Gamma_TP9,Gamma_AF7,Gamma_AF8,Gamma_TP10,RAW_TP9,RAW_AF7,RAW_AF8,RAW_TP10,AUX_RIGHT,Accelerometer_X,Accelerometer_Y,Accelerometer_Z,Gyro_X,Gyro_Y,Gyro_Z,Attention,Meditation,A_M
948.6153846153846,52.02154985359136,,,,,,,36.878074311915256,37.02684350461569,0.05483945411098665,0.03887568651110106,961.5384615384617,57.02307692307691,0.059303999999999975,69.23076923076928,20.8,61.6,9.615384615384617,187.5,,,0.033195865890679084,0.03267312627846074,0.0012593837942993212,1.0159990693196372,0.4945131684514297,0.4867260053521309,-3.4212023653101022,2021-09-22 20:28:00,2021-09-22 20:28:00.069,1.2679966999999999,0.47468707,0.9281094000000001,0.94145536,1.0850587,0.15947849,0.42717066,0.8452129999999999,1.0516159999999999,-0.026303401,0.52938414,0.8399299000000001,0.9549709999999999,0.34859650000000003,0.8603958,0.9232251,0.4167632000000001,0.41531903,0.84140253,0.7811551,790.54944,808.2784,799.0110000000003,795.38464,710.3663,-0.55084228515625,0.04693603515625,0.8489990234375,2.1832275390625,-0.785064697265625,-0.8074951171875,51.0,19.0,32.0
947.9853479853481,52.18472942139728,,,,,,,36.08668065519547,36.229317773184256,0.05504803374050021,0.038066707182644384,957.6923076923076,51.32076923076927,0.05358795180722895,69.23076923076928,19.84126984126984,60.317460317460316,9.692307692307693,187.5,,,0.03382284666396035,0.033935709210425456,0.0013037012921228047,0.9966742246120368,0.4897442981397742,0.4913785127034974,-3.3832874499605063,2021-09-22 20:28:01,2021-09-22 20:28:01.005,1.2679966999999999,0.53292835,0.679503,0.94145536,1.0850587,-0.02798228,0.02443946,0.8452129999999999,1.0516159999999999,0.2996449,0.27613940000000003,0.8399299000000001,0.9549709999999999,0.4206618,0.62764287,0.9232251,0.4167632000000001,0.2457301,0.7437571,0.7811551,767.98535,800.6227,795.78754,782.49084,622.1245,-0.58160400390625,0.0504150390625,0.84527587890625,2.355194091796875,-4.493560791015625,1.532745361328125,53.0,37.0,16.0
948.7179487179487,51.385536610811656,,,,,,,36.24375073658384,36.380735711401506,0.054163133184369036,0.0382028723980208,957.6923076923076,51.32076923076927,0.05358795180722895,69.23076923076928,19.84126984126984,61.111111111111114,9.692307692307693,187.5,,,0.03349334253081086,0.034232854247239784,0.0013113362735861017,0.9783976027506224,0.48514686215336605,0.4958585965352392,-3.374569445538887,2021-09-22 20:28:02,2021-09-22 20:28:02.053,-0.03331982,-0.22147751,0.058976699999999986,0.41150203,0.16806862,-0.056175474,0.16374771,0.19020665,0.4007277,0.17090905,0.49543149999999997,0.6063455,0.8034654999999999,0.31444484,0.6619229,0.47695509999999997,0.8861188,0.15632436,0.65449744,0.39293993,820.3663,799.0110000000003,798.20514,804.65204,835.2747,-0.57379150390625,0.0572509765625,0.84368896484375,2.03369140625,-3.27484130859375,-0.007476806640625,45.0,34.0,11.0
949.81684981685,50.48136838995552,,,,,,,36.38063077872604,36.50612386429629,0.053148529002922704,0.03830278520089552,961.5384615384617,57.02307692307691,0.059303999999999975,69.23076923076928,19.84126984126984,61.904761904761905,9.692307692307693,187.5,,,0.033277366687170705,0.03459156973909206,0.0013203684802962606,0.9620079961148404,0.4809611360037824,0.4999554452210263,-3.364145275764926,2021-09-22 20:28:03,2021-09-22 20:28:03.001,0.55886513,0.045115024000000004,0.34046550000000003,0.8070453000000001,0.61121,0.050938044,0.29594424,0.5748705,0.6604795,0.27052740000000003,0.565489,0.7836274000000001,0.76501304,0.34886703,0.77399397,0.48810863,0.7510551999999999,0.21120718,0.57367194,0.37289092,819.15753,805.8608,797.8022,806.26373,1030.6959,-0.567138671875,0.06304931640625,0.838623046875,2.400054931640625,-3.686065673828125,0.7177734375,40.0,40.0,0.0
952.0615384615384,48.26772065693114,,,,,,,36.29111788910299,36.427908554991475,0.05069811005591953,0.03811845812797645,961.5384615384617,57.02307692307691,0.059303999999999975,69.23076923076928,20.0,61.6,9.615384615384617,187.5,,,0.033865649331517984,0.03582285349900734,0.0013591323600270196,0.9453643700509899,0.4766611758532016,0.5042089494313097,-3.3291692233502577,2021-09-22 20:28:04,2021-09-22 20:28:04.007,0.58145314,-0.0023147967000000003,-0.0071926177,0.6271009,0.5847982,-0.17413586,-0.0737379,0.5848355,0.8065088,0.26195028,0.5431246999999999,0.7638533000000001,0.69264245,0.29786232,0.74588096,0.66878104,0.5422215,0.11137519,0.56954867,0.33154320000000004,821.5751,801.02563,787.7289400000003,807.47253,718.8278,-0.5643310546875,0.072021484375,0.84185791015625,2.100982666015625,-3.401947021484375,-0.61309814453125,37.0,47.0,-10.0
952.8615384615384,47.83912405571425,,,,,,,36.27138909292408,36.41208977372357,0.05020574566684039,0.03806574998450118,961.5384615384617,45.61846153846162,0.04744320000000009,69.23076923076928,20.0,61.6,9.615384615384617,187.5,,,0.03327799676085524,0.035565124279152434,0.001342497930880118,0.9356918451810988,0.4741426698061689,0.5067295095581396,-3.336389776379808,2021-09-22 20:28:05,2021-09-22 20:28:05.020,0.88237315,0.85073084,0.20225726,0.17703053,0.5644613,0.45172375,0.1000505,0.26434335,0.6701054,0.44035447,0.37313208,0.4673285,0.73720527,0.35220359999999995,0.71276826,0.5770198000000001,0.56364685,0.1982342,0.42376113,0.3359307,805.05493,790.9524,803.0403,817.9487,695.05493,-0.565185546875,0.07525634765625,0.84063720703125,2.1234130859375,-3.5888671875,-0.91217041015625,30.0,42.0,-12.0
953.7230769230767,47.709354193617585,,,,,,,36.225313450760375,36.35498912684403,0.05002432608377118,0.03798305223737618,961.5384615384617,45.61846153846162,0.04744320000000009,61.53846153846154,20.0,61.6,8.928571428571429,187.5,,,0.03208726874025066,0.034548195559172906,0.0012939267079489034,0.9287682966044564,0.4723620845764418,0.5085898025410435,-3.3653999570737816,2021-09-22 20:28:06,2021-09-22 20:28:06.028,1.2153374,1.2873001,0.46830794,0.32750413,0.87627363,0.8717531999999999,0.29361909999999997,0.39868206,0.5774669,0.44035447,0.33153698,0.13884011,0.56820005,0.50094306,0.6632291,0.2787245,0.50598025,0.18563542,0.44724092,0.3461984,776.8498,805.8608,791.75824,790.54944,635.0183,-0.56549072265625,0.074462890625,0.85369873046875,1.727142333984375,-3.446807861328125,-0.299072265625,19.0,39.0,-20.0
954.7692307692308,47.101519710088006,,,,,,,36.12638205042743,36.2639011042031,0.04933288400186465,0.03783781555394429,961.5384615384617,45.61846153846162,0.04744320000000009,69.23076923076928,20.0,60.8,8.928571428571429,187.5,,,0.031921491438169206,0.03443119282846061,0.0012806358879054098,0.9271096588841702,0.47197877267051,0.5090862425471476,-3.3687923571995735,2021-09-22 20:28:07,2021-09-22 20:28:07.035,1.2153374,0.13528927,0.27727270000000004,0.32750413,0.87627363,-0.17152531,-0.20512706,0.39868206,0.5774669,-0.18086886,0.25489324,0.13884011,0.56820005,0.5777845,0.6076288000000001,0.2787245,0.50598025,0.20518155,0.34587306,0.3461984,759.5238,783.69965,801.02563,806.6667,676.1172,-0.5614013671875,0.07598876953125,0.8487548828125,1.734619140625,-3.013153076171875,-0.34393310546875,12.0,26.0,-14.0
955.0769230769232,46.81495087985035,,,,,,,36.225313450760375,36.36459214244472,0.04901694277046187,0.037929210281885055,961.5384615384617,45.61846153846162,0.04744320000000009,69.23076923076928,20.0,60.8,8.928571428571429,187.5,,,0.030868498627202787,0.03323461205456784,0.0012271252038054837,0.9288057455438284,0.4724994209613449,0.5087171598886806,-3.404163414354437,2021-09-22 20:28:08,2021-09-22 20:28:08.000,0.16547324,-0.0443565,0.03945099,0.23661046,0.07006144,-0.13925283,-0.14774634,0.2053265,0.7787589,0.10899991,0.50548553,0.92653644,0.9326576999999999,0.4014362,0.66504127,0.93733525,0.34376407,0.10649235,0.44377586,0.29170457,815.12823,802.2344400000003,791.75824,805.05493,774.0293,-0.55743408203125,0.0767822265625,0.8448486328125,1.9140625,-3.7384033203125,-0.1495361328125,6.0,15.0,-9.0
956.8858560794044,44.560991496348365,,,,,,,36.372272729444276,36.50721235691177,0.04656876388467653,0.03801108825923123,961.5384615384617,45.61846153846162,0.04744320000000009,69.23076923076928,20.161290322580644,61.29032258064516,8.857142857142858,187.5,,,0.030142848695493007,0.03222461759423627,0.001178529131966594,0.935398181447602,0.4743469434299181,0.5071069762994718,-3.4350245969693827,2021-09-22 20:28:09,2021-09-22 20:28:09.000,-0.053828284000000004,-0.30082163,-0.47861636,0.08155865,-0.03309565,-0.22258928,-0.31282,-0.07175693,0.72261065,0.23376718,0.4029776,0.85714334,0.96931726,0.22358870000000008,0.5664834,0.8401030999999999,0.3864973,0.12318203,0.3591236,0.30328894,858.24176,797.3993,809.0842,834.87177,692.6374,-0.55810546875,0.07427978515625,0.8565673828125,2.3028564453125,-3.566436767578125,0.515899658203125,5.0,0.0,5.0
958.0024813895783,42.88395079423884,,,,,,,36.372272729444276,36.50721235691177,0.044763924548541736,0.0379667834228221,961.5384615384617,45.61846153846162,0.04744320000000009,63.46153846153846,20.161290322580644,61.29032258064516,8.857142857142858,171.875,,,0.030387124950023162,0.032179878537228535,0.001167744590680084,0.944289609883662,0.4767748499275034,0.5049032044165379,-3.4364139119051806,2021-09-22 20:28:10,2021-09-22 20:28:10.000,-0.4855954000000001,0.7205204000000001,0.16337821,-0.23001897,-1.6718184e-05,0.49291694,0.09177092,-0.18644173,0.49070302,0.37118609999999996,0.4273183,0.5569542,0.9642426,0.26121372,0.54486465,0.64779234,0.41954079999999994,0.07586229,0.2007889,0.28735474,806.26373,803.4432400000003,801.8315,814.7253,809.0842,-0.55322265625,0.07806396484375,0.8465576171875,1.622467041015625,-3.431854248046875,0.28411865234375,10.0,9.0,1.0
959.0570719602977,41.506118405662754,,,,,,,35.7115710023921,35.85493688717587,0.04327804842815547,0.037236127073645583,961.5384615384617,45.618461538461546,0.047443200000000005,61.53846153846154,19.354838709677423,60.483870967741936,8.857142857142858,171.875,,,0.03021646447977347,0.03159206581878396,0.0011375069089753652,0.9564573793020972,0.4800375976036415,0.5018912582951817,-3.4548492715996058,2021-09-22 20:28:11,2021-09-22 20:28:11.000,0.80287486,0.21259235,0.30348936,0.40632686,0.41336438,0.25369477,0.3538009,0.30137366,0.53865504,0.33457738,0.39614332,0.69278675,0.7623651,0.21139139999999998,0.5957876,0.6829414,0.40228823,0.07558439,0.1982284,0.16888009,816.337,801.4286,796.99634,819.5604,750.65936,-0.55084228515625,0.07763671875,0.8472900390625,2.115936279296875,-3.102874755859375,0.37384033203125,8.0,16.0,-8.0
959.6153846153844,41.37931898473149,,,,,,,35.40717664518529,35.55177005027776,0.043120733210541835,0.036897258227447605,965.3846153846156,51.3207692307691,0.05316095617529866,61.53846153846154,18.548387096774192,59.67741935483871,8.857142857142858,171.875,,,0.02957240879376927,0.03029929606102932,0.001081655370563738,0.9760097638639548,0.4851645370235778,0.4970898396577973,-3.4966307990459518,2021-09-22 20:28:12,2021-09-22 20:28:12.000,0.31039858,0.06613068,-0.13109897,-0.06062834,0.18666624,-0.012801846,0.026045669,0.26565653,0.32545686,0.2003174,0.32398259999999995,0.6761457,0.7665415,0.21780883,0.4114449000000001,0.6037732,0.4680286,-0.01610199,0.19389172,0.0416973,869.5238,784.5055,797.8022,863.4798599999997,731.3186599999997,-0.54656982421875,0.08197021484375,0.85565185546875,2.04864501953125,-3.81317138671875,0.246734619140625,4.0,29.0,-25.0
959.5533498759307,41.37055178741289,,,,,,,35.29831496816885,35.44179490137884,0.04311438420048458,0.03678619325619871,961.5384615384617,45.61846153846145,0.04744319999999992,61.53846153846154,18.548387096774192,59.67741935483871,8.857142857142858,171.875,,,0.02896800037246302,0.029125569462818964,0.001033499898451118,0.9945900082552176,0.4899278875634223,0.4925928106023201,-3.536138814915951,2021-09-22 20:28:13,2021-09-22 20:28:13.017,0.46221098,0.81485933,0.42362806,0.19075,0.32592487,0.3497381,0.039705575,0.093545355,0.23222567,0.2590531,0.52689284,0.57165337,0.90149486,0.27695766,0.42616144,0.5623322,0.45440432,-0.14687529,0.04466563,0.123097144,775.64105,791.75824,788.1319,765.56775,695.05493,-0.546142578125,0.07989501953125,0.858642578125,1.816864013671875,-3.5589599609375,0.142059326171875,0.0,50.0,-50.0
959.863523573201,41.297106284973005,,,,,,,35.305128657059285,35.448136060499465,0.04302393545619885,0.03678140463722586,965.3846153846156,51.3207692307691,0.05316095617529866,61.53846153846154,18.548387096774192,59.67741935483871,8.857142857142858,171.875,,,0.028587872995046882,0.02815069507180386,0.000993810225125297,1.0155299157668365,0.4951792017031832,0.4876067105608293,-3.570183232985328,2021-09-22 20:28:14,2021-09-22 20:28:14.030,0.35641035,-0.1262576,0.07285628,0.25486574,0.40057874,-0.046118762,0.01946248,0.45443429999999996,0.3201317,0.10917235,0.46066090000000004,0.58197206,0.69894063,0.33886346,0.42085543,0.7694159,0.33551034,-0.09912389,-0.041951794,0.2479376,789.34064,789.7436,805.05493,806.6667,639.0476,-0.54425048828125,0.0875244140625,0.8626708984375,2.086029052734375,-2.893524169921875,0.4486083984375,0.0,55.00000000000001,-55.00000000000001
959.8014888337468,41.3469132926447,,,,,,,35.54278486518021,35.68793375378993,0.04307860924750728,0.03703139167701041,965.3846153846156,51.3207692307691,0.05316095617529866,61.53846153846154,18.548387096774192,60.483870967741936,8.857142857142858,171.875,,,0.02834589487225865,0.027140239167811817,0.0009544532523029231,1.0444231790660392,0.5022253706436703,0.4808638688895992,-3.606737812240926,2021-09-22 20:28:15,2021-09-22 20:28:15.029,0.43948084,0.22511707,0.17939167,0.6592809000000001,0.45796314,-0.1912461,0.015038722,0.41545358,0.53285384,0.17997433,0.35464692,0.5564998999999999,0.8942679,0.32351953,0.34111893,0.65945846,0.39953628,-0.24687435,0.029157212000000002,0.3493902,748.6447,788.5348,804.65204,790.9524,649.12085,-0.5430908203125,0.0880126953125,0.85882568359375,1.77947998046875,-3.8580322265625,-0.082244873046875,6.0,65.0,-59.0
959.8014888337468,41.3469132926447,,,,,,,35.40038259798754,35.543783331247006,0.04307860924750728,0.036883025302453416,965.3846153846156,51.3207692307691,0.05316095617529866,61.53846153846154,18.548387096774192,59.67741935483871,8.857142857142858,171.875,,,0.028302126437004606,0.02647911772020033,0.0009301921746590797,1.0688470339558762,0.5080128659475482,0.475290523160604,-3.6313988671919626,2021-09-22 20:28:16,2021-09-22 20:28:16.012,0.39628217,0.45110494,0.41325074,0.41286445,0.37210646,-0.08721921,0.39077556,0.2699052,0.58623767,0.32464224,0.54550105,0.6640904000000001,0.8269575000000001,0.29759559999999996,0.39385322,0.5157767,0.4827992999999999,-0.15622097,0.15332459,0.11399628,759.12085,805.05493,784.90845,791.3553,817.9487,-0.52978515625,0.09356689453125,0.86737060546875,1.51031494140625,-4.089813232421875,0.059814453125,7.000000000000001,71.0,-64.0
959.6153846153844,41.32114883017649,,,,,,,35.4207608300876,35.56474464336512,0.043060115013410366,0.03691141409147405,961.5384615384617,45.618461538461546,0.047443200000000005,61.53846153846154,18.548387096774192,59.67741935483871,8.857142857142858,171.875,,,0.02835642338339095,0.02594099567106161,0.0009120645968173668,1.0931123748277658,0.5136150803819136,0.4698648484908429,-3.6519307172120583,2021-09-22 20:28:17,2021-09-22 20:28:17.017,0.70867413,0.7056155,0.8132979,0.6838224,0.5138334,0.67480695,0.559843,0.24923724,0.65994954,0.5451921,0.66832995,0.9567855,0.81057817,0.25744516,0.45359838,0.5355995,0.5234805,-0.08582831,0.26333140000000005,0.025404954,822.7839,814.7253,799.41394,817.1429,1054.0659,-0.52716064453125,0.09625244140625,0.8671875,1.973876953125,-3.536529541015625,0.291595458984375,1.0,67.0,-66.0
959.6622889305817,41.4400480936861,,,,,,,35.34676411824438,35.492524588669994,0.043181907397721785,0.036832502981474585,961.5384615384617,45.61846153846162,0.04744320000000009,61.53846153846154,18.699186991869922,59.34959349593496,8.785714285714286,171.875,,,0.028643636524523314,0.02555411385926367,0.0009011712556483917,1.120901185706334,0.5198583869202715,0.4637860977840643,-3.6669569631892283,2021-09-22 20:28:18,2021-09-22 20:28:18.004,0.3212821,0.85009956,0.85984904,0.98721147,0.2308324,0.7883826,0.5727656999999999,0.26464390000000004,0.51100045,0.4472764,0.5430354000000001,0.9567855,0.71979105,0.21360219,0.47594497,0.5410283,0.686088,-0.14349401,0.25457683,0.10205542,776.04395,795.78754,797.8022,817.9487,757.50916,-0.48516845703125,0.1126708984375,0.9013671875,-0.740203857421875,-9.024505615234377,5.99639892578125,0.0,64.0,-64.0
959.537210756723,41.410730219767345,,,,,,,35.36734048408035,35.513129370822604,0.04315698209046991,0.036858748246134714,961.5384615384617,45.61846153846162,0.04744320000000009,61.53846153846154,18.699186991869922,59.34959349593496,8.785714285714286,171.875,,,0.02895526474927362,0.025420990853458274,0.0009002100828765691,1.1390297457793446,0.5238262683790271,0.4598881375311369,-3.6721800346941813,2021-09-22 20:28:19,2021-09-22 20:28:19.028,0.3212821,0.6471239000000001,0.7742394,0.18193191,0.2308324,0.37894306,0.69457215,-0.22432403,0.51100045,0.156907,0.427487,0.45209312,0.71979105,0.11034949,0.53492624,0.51591986,0.686088,-0.024064442000000002,0.24629572,0.29323313,811.9048,803.0403,787.7289400000003,794.17584,675.3113400000002,-0.467041015625,0.1065673828125,0.90386962890625,2.923431396484375,-6.23565673828125,4.254302978515625,0.0,56.00000000000001,-56.00000000000001
959.4292803970224,41.25955877536299,,,,,,,35.25058226889108,35.39425569969241,0.04300427308023092,0.03674119915779932,961.5384615384617,45.618461538461546,0.047443200000000005,61.53846153846154,18.548387096774192,58.870967741935495,8.857142857142858,171.875,,,0.029297669733922886,0.025429271466934224,0.000904436772047862,1.152123833827436,0.5266392960496536,0.4571030305831979,-3.6718543485257613,2021-09-22 20:28:20,2021-09-22 20:28:20.022,1.0535434,0.8382639999999999,0.98790485,0.65891314,0.70718694,0.5743526999999999,0.8947965,0.58839095,0.8870493,0.43284434,0.5622249,0.45308864,0.7722971,0.18785304,0.434503,0.53659165,0.48731579999999997,0.22634701,0.22541417,0.3927922,868.315,817.9487,786.5201400000003,826.8132,708.3516,-0.511474609375,0.10443115234375,0.92236328125,5.63751220703125,4.119720458984375,-1.278533935546875,0.0,53.0,-53.0
958.0024813895783,42.69281976095257,,,,,,,36.13341538139794,36.25488979400385,0.04456441459214889,0.037717454895301095,961.5384615384617,45.61846153846162,0.04744320000000009,63.46153846153846,19.354838709677423,58.870967741935495,8.857142857142858,171.875,,,0.02972876008600587,0.025620059160739183,0.0009158763145025091,1.160370469852894,0.5283732505696098,0.4553487565368621,-3.6643796733538734,2021-09-22 20:28:21,2021-09-22 20:28:21.005,1.0510197000000001,0.74775213,0.69342625,0.61850584,0.7504304,0.41996738,0.5861948,0.510926,0.9423553,0.41013402,0.38194925,0.6117289,0.8114053000000001,0.27433476,0.44693940000000004,0.5473456,0.5016857,0.3831713,0.36845413,0.5068079000000001,749.0476,794.17584,808.2784,743.00366,732.9304,-0.56304931640625,-0.00457763671875,0.8323974609375,0.657958984375,0.082244873046875,-3.252410888671875,0.0,56.00000000000001,-56.00000000000001
956.637717121588,43.78246779133425,,,,,,,36.13341538139794,36.25488979400385,0.04576703072409754,0.037771263598218974,961.5384615384617,45.61846153846162,0.04744320000000009,63.46153846153846,19.354838709677423,58.870967741935495,9.538461538461537,171.875,,,0.030100808078118158,0.0259341985288336,0.0009312544408714646,1.1606608179794768,0.5283971165467312,0.4552554099884109,-3.652192774728055,2021-09-22 20:28:22,2021-09-22 20:28:22.001,1.070936,0.9135121999999999,0.72135216,0.5781018,0.82708627,0.5539579000000001,0.59700054,0.39890024,0.9423553,0.8897341000000001,0.34103027,0.58049697,0.83623904,0.5006387999999999,0.5176374,0.5759558000000001,0.51612246,0.37843052,0.46027339,0.6039093000000001,790.14655,792.96704,809.0842,796.99634,761.1355599999997,-0.58831787109375,0.11187744140625,0.845703125,10.9759521484375,-7.0880126953125,5.136566162109375,0.0,62.0,-62.0
955.2109181141436,44.97181798044447,,,,,,,36.133415381397946,36.25488979400386,0.047080510835482856,0.03782768255280783,961.5384615384617,45.61846153846162,0.04744320000000009,61.53846153846154,19.354838709677423,58.870967741935495,10.333333333333334,179.6875,,,0.03051269745223348,0.026401141298248144,0.0009527470042931554,1.1557340308715425,0.5272938960238511,0.4562415589910572,-3.6343480387700513,2021-09-22 20:28:23,2021-09-22 20:28:23.010,1.070936,1.1515696000000002,0.72135216,0.5781018,0.82708627,0.87508684,0.59700054,0.39890024,0.9423553,1.0192459999999999,0.34103027,0.58049697,0.83623904,0.40626767,0.5176374,0.5759558000000001,0.51612246,0.14766885,0.46027339,0.6039093000000001,846.9597,798.60803,798.20514,848.9743699999997,707.1429,-0.5584716796875,0.11053466796875,0.86395263671875,4.508514404296875,-3.626251220703125,-4.486083984375,0.0,75.0,-75.0
954.2803970223323,45.2305226830934,,,,,,,36.39871567930524,36.53981724632117,0.04739751840677798,0.03814257925959829,961.5384615384617,45.61846153846162,0.04744320000000009,61.53846153846154,20.161290322580644,58.870967741935495,11.272727272727273,195.3125,,,0.0310160389387431,0.027137195395260917,0.0009846103990823053,1.1429345769518822,0.5244702284760525,0.4588803585545324,-3.606849968335944,2021-09-22 20:28:24,2021-09-22 20:28:24.022,1.070936,0.86325336,0.9593725000000001,0.5781018,0.82708627,0.62109864,0.76247525,0.39890024,0.9423553,0.5890477,0.75566685,0.58049697,0.83623904,0.19727714,0.6357415,0.5759558000000001,0.51612246,-0.01803705,0.48224866,0.6039093000000001,791.75824,803.4432400000003,802.6374,803.8461,723.2601,-0.54107666015625,0.101318359375,0.86004638671875,1.786956787109375,-2.908477783203125,1.614990234375,0.0,85.0,-85.0
953.970223325062,45.20585597582348,,,,,,,36.29945529358609,36.44743309768696,0.047387072332570855,0.038050931157017034,961.5384615384617,45.61846153846162,0.04744320000000009,61.53846153846154,20.161290322580644,58.870967741935495,11.272727272727273,140.625,,,0.030905124407873193,0.027387582280179224,0.0009972595690516924,1.1284356571423124,0.5212538707452906,0.4619260898448842,-3.5976655697682425,2021-09-22 20:28:25,2021-09-22 20:28:25.002,0.30127993,0.78927344,0.84441286,0.44495475,0.0004857556500000001,0.48049659999999994,0.5428189999999999,0.19951968,0.3497833,0.5924144,0.64458746,0.478996,0.6619001999999999,0.08763154,0.46457659999999995,0.7436134,0.4710634,0.031497102,0.28367835,0.32065472,834.87177,807.0696,802.6374,815.9341,894.1025400000003,-0.5438232421875,0.1094970703125,0.8565673828125,2.325286865234375,-3.15521240234375,1.383209228515625,1.0,92.0,-91.0
954.2183622828784,45.076596919566974,,,,,,,36.29945529358609,36.44743309768696,0.047239288931440616,0.03804103623277908,961.5384615384617,45.618461538461546,0.047443200000000005,61.53846153846154,20.161290322580644,58.870967741935495,11.272727272727273,140.625,,,0.030701843537021056,0.02763832254882619,0.0010092392674499284,1.1108432316318335,0.5173066748395889,0.4656882808563934,-3.5885519711853275,2021-09-22 20:28:26,2021-09-22 20:28:26.002,0.44596776,0.64675814,0.6749275,0.52706975,0.15132838,0.27267626,0.27214393,0.28392407,0.4391085,0.24415748,0.6106758000000001,0.49657524,0.6867595999999999,0.21311139,0.44293615,0.7254798000000001,0.46466792,-0.016247248,0.24135162,0.32868326,804.65204,791.75824,793.7729,798.20514,633.00366,-0.54339599609375,0.119873046875,0.8558349609375,1.7645263671875,-3.162689208984375,0.485992431640625,2.0,93.0,-91.0
954.4665012406947,44.98837824723356,,,,,,,36.140071624501545,36.287830063108736,0.047134580615195966,0.03786415927381808,961.5384615384617,45.61846153846145,0.04744319999999992,61.53846153846154,20.161290322580644,58.064516129032256,11.272727272727273,140.625,,,0.030151275550750638,0.027759829289822062,0.0010150815397104989,1.0861477293668151,0.5116787187985969,0.4710949578625802,-3.5841652928645287,2021-09-22 20:28:27,2021-09-22 20:28:27.000,1.1345078000000002,0.67373586,0.7193684,0.7452595000000001,0.89744586,0.21629028,0.26093575,0.8583713,1.0635024,0.11239773,0.5369476,0.8575658000000002,0.7513473,0.31577975,0.54460335,0.73880106,0.56066847,-0.05456746,0.41851917,0.41913363,794.17584,800.2198,805.4579,811.0989,793.36993,-0.5421142578125,0.14984130859375,0.85205078125,1.60003662109375,-3.18511962890625,-1.966400146484375,6.0,82.0,-76.0
954.09429280397,45.120125675401596,,,,,,,36.29945529358609,36.445269261928615,0.047291054999185546,0.03804598305153497,961.5384615384617,45.618461538461546,0.047443200000000005,61.53846153846154,20.161290322580644,58.870967741935495,11.272727272727273,179.6875,,,0.02937966867422097,0.02756145597753346,0.0010067103139799268,1.0659693993731545,0.5070020077815456,0.4756252928833504,-3.591337004858609,2021-09-22 20:28:28,2021-09-22 20:28:28.000,1.1020967,0.7153004,0.7212578000000001,0.6926975000000001,0.98540497,0.4732571,0.34948087,0.8187331999999999,1.2729696000000001,0.5613959,0.498663,0.87876374,0.70029896,0.35348377,0.5494973000000001,0.66703546,0.48900226,-0.06206484,0.72191626,0.30881557,822.3810000000003,803.4432400000003,785.7143,813.91943,698.6813400000003,-0.533203125,0.1641845703125,0.8653564453125,-0.7177734375,-8.38897705078125,3.192596435546875,19.0,72.0,-53.0
953.5980148883374,45.29039608732339,,,,,,,35.87956313760387,36.02631042954809,0.047494222282569165,0.03762545913206963,961.5384615384617,45.61846153846162,0.04744320000000009,61.53846153846154,19.354838709677423,58.064516129032256,11.272727272727273,179.6875,,,0.028316590339983936,0.027054177490987718,0.0009858545272262926,1.0466623998980105,0.5024536452877902,0.4800532104112564,-3.609913849717608,2021-09-22 20:28:29,2021-09-22 20:28:29.001,1.0534879,0.880619,0.7272045,0.47583523,1.0351617,0.58231467,0.60753393,0.6381264,1.2599546999999998,0.63610053,0.57868725,0.7555609999999999,0.60041684,0.48259189999999996,0.6368575,0.58663225,0.37412545,0.09143274,0.96441025,0.1728384,747.03296,787.7289400000003,799.0110000000003,782.8938,946.08057,-0.50439453125,0.1405029296875,0.8681640625,1.00189208984375,-3.81317138671875,-2.714080810546875,30.0,67.0,-37.0
953.7841191066997,45.14741725061097,,,,,,,35.93315474796158,36.0799026487795,0.047335048200315366,0.037674305986155496,961.5384615384617,45.618461538461546,0.047443200000000005,61.53846153846154,19.354838709677423,58.870967741935495,11.272727272727273,179.6875,,,0.027473290173224682,0.026711868520475333,0.0009699998718104408,1.0285049940316118,0.4981091685303256,0.4843040835200999,-3.6226472984674776,2021-09-22 20:28:30,2021-09-22 20:28:30.000,1.0534879,1.1116371999999999,0.8099754,0.47583523,1.0351617,0.704325,0.6765757,0.6381264,1.2599546999999998,0.56361014,0.54498184,0.7555609999999999,0.60041684,0.61463535,0.65705407,0.58663225,0.37412545,0.13145848,1.0136886,0.1728384,836.08057,795.78754,794.17584,813.1135,818.3516,-0.5111083984375,0.08270263671875,0.8934326171875,4.366455078125,-7.01324462890625,-8.246917724609375,35.0,64.0,-29.0
953.6,45.09682908064002,,,,,,,35.72791712154325,35.86847827512082,0.047291137878187936,0.0374663560418868,961.5384615384617,45.61846153846145,0.04744319999999992,61.53846153846154,18.4,58.4,11.363636363636365,179.6875,,,0.02644373438591701,0.026217961177609567,0.0009468838794657748,1.0086113945618416,0.4932742978954967,0.4890627852858867,-3.6413105619609314,2021-09-22 20:28:31,2021-09-22 20:28:31.016,1.0534879,0.75012034,0.8099754,0.47583523,1.0351617,0.41989377,0.6765757,0.6381264,1.2599546999999998,0.01768077,0.54498184,0.7555609999999999,0.60041684,0.3766599,0.65705407,0.58663225,0.37412545,0.49261504,1.0136886,0.1728384,803.0403,811.5018299999997,814.7253,798.60803,737.7655599999997,-0.49835205078125,0.11181640625,0.890625,2.2430419921875,-2.071075439453125,-5.99639892578125,39.0,63.0,-24.0
952.8615384615384,45.59186393295503,,,,,,,35.62090702084908,35.74973649442935,0.04784731263953235,0.03738308829041575,953.846153846154,45.61846153846162,0.04782580645161299,61.53846153846154,18.4,58.4,11.363636363636365,179.6875,,,0.02551673778780785,0.025630481769738356,0.0009213936371414515,0.9955621598160984,0.4900598695110093,0.4922443713625414,-3.6639729416802718,2021-09-22 20:28:32,2021-09-22 20:28:32.000,1.0534879,0.83491826,0.8099754,0.47583523,1.0351617,0.627555,0.6765757,0.6381264,1.2599546999999998,0.5050429,0.54498184,0.7555609999999999,0.60041684,0.36894178,0.65705407,0.58663225,0.37412545,0.3087873,1.0136886,0.1728384,819.5604,785.7143,788.5348,815.9341,710.3663,-0.48651123046875,0.12994384765625,0.8953857421875,3.06549072265625,-2.19818115234375,-0.695343017578125,40.0,61.0,-21.0
951.753846153846,45.92972880986162,,,,,,,35.62090702084908,35.74582952613873,0.04825799128153701,0.03742659634610096,953.846153846154,45.61846153846162,0.04782580645161299,61.53846153846154,18.4,58.4,12.5,140.625,,,0.024264936346075492,0.024680150914652813,0.0008811967558393219,0.9831761738405412,0.4869906882481385,0.4953239319722593,-3.701755965107373,2021-09-22 20:28:33,2021-09-22 20:28:33.006,0.53327703,0.57334244,0.77657324,0.38075486,0.24073112,0.47212303,0.5081515999999999,0.48507443,0.7204271,0.5841423000000001,0.41376525,0.61413574,0.5722458,0.47894228,0.71843535,0.7303166,0.5528413000000001,0.08758434,0.5441241,0.39719403,833.663,803.4432400000003,806.6667,790.9524,981.53845,-0.5003662109375,0.07232666015625,0.890625,0.246734619140625,-7.16278076171875,-1.233673095703125,43.0,60.0,-17.0
950.5846153846153,46.156575601675044,,,,,,,35.29117017210986,35.42645587357642,0.04855598844612025,0.03712575356359068,953.846153846154,45.61846153846162,0.04782580645161299,61.53846153846154,17.599999999999994,57.6,12.5,140.625,,,0.023130387598008992,0.023677510975237282,0.0008405610151882778,0.9768926988229256,0.485438307928496,0.4969208066693597,-3.743229585333884,2021-09-22 20:28:34,2021-09-22 20:28:34.004,0.38511232,0.72911614,0.8476885000000001,0.16894913,0.084539235,0.5049707999999999,0.6408024999999999,0.48088336,0.3513515,0.5132032999999999,0.41376525,0.54794407,0.4736607,0.5404817,0.7198992,0.7899119000000001,0.7369248,0.25200558,0.6217421,0.36224586,794.17584,774.43225,813.1135,816.337,741.39197,-0.47528076171875,0.01776123046875,0.9073486328125,1.57012939453125,-3.27484130859375,-5.630035400390625,51.0,60.0,-9.0
950.0923076923076,46.36650758237592,,,,,,,35.06735536223892,35.209561930009244,0.04880210818146311,0.03690941930412478,953.846153846154,45.61846153846162,0.04782580645161299,69.23076923076928,16.8,57.6,12.5,179.6875,,,0.02225158469126279,0.02282746683652653,0.0008053726048613915,0.9747724025014348,0.4849485443455501,0.4974992553144592,-3.7797907822608807,2021-09-22 20:28:35,2021-09-22 20:28:35.030,0.38511232,0.70197004,0.8476885000000001,0.16894913,0.084539235,0.4627755,0.6408024999999999,0.48088336,0.3513515,0.5166652,0.41376525,0.54794407,0.4736607,0.60338616,0.7198992,0.7899119000000001,0.7369248,0.4700148,0.6217421,0.36224586,770.40295,786.9231,786.1172,795.38464,770.40295,-0.46697998046875,0.03863525390625,0.9072265625,2.145843505859375,-3.102874755859375,-1.128997802734375,60.0,61.0,-1.0
950.3384615384613,46.221042894559794,,,,,,,35.230270782175076,35.37269981387345,0.04863640141401262,0.03707128797580425,953.846153846154,45.61846153846162,0.04782580645161299,61.53846153846154,16.8,58.4,12.5,179.6875,,,0.021887157281341628,0.02235501865588659,0.0007831943809533048,0.9790713046700248,0.4861072130372564,0.4964982741487746,-3.800704434767953,2021-09-22 20:28:36,2021-09-22 20:28:36.000,0.26210207,0.30968595,0.31898305,0.013902902,0.7069253000000001,0.09703655,0.14222571,0.3236857,0.5869595000000001,0.3995397,0.15815735,0.29552498,0.8574811,0.65476495,0.7578515,0.5956651999999999,0.5758791999999999,0.5631323,0.77162915,0.19981192,794.9817,809.8901400000003,809.8901400000003,791.75824,756.30035,-0.46844482421875,0.0504150390625,0.9044189453125,1.876678466796875,-2.265472412109375,2.235565185546875,72.0,61.0,11.0
950.8307692307692,46.17344497028293,,,,,,,35.37220626083045,35.513738340534886,0.048561159845129605,0.03720136895595722,953.846153846154,45.61846153846145,0.04782580645161282,61.53846153846154,16.8,59.2,12.5,179.6875,,,0.021916632221881702,0.02217491272624873,0.0007731285622704081,0.9883525807945438,0.4885053318576104,0.4942622110268558,-3.8087936864763705,2021-09-22 20:28:37,2021-09-22 20:28:37.025,0.5974048000000001,0.43424946,0.26334321,0.54211795,0.5762267,0.46758469999999996,0.12126425,0.5822735,0.5472345000000001,0.5626236,0.5663946,1.0441810999999999,0.74412405,0.42486840000000003,0.88814807,0.6468316,0.53952545,0.47426182,0.81780887,0.17951319,813.91943,802.2344400000003,799.41394,797.3993,667.6557,-0.46575927734375,0.05523681640625,0.90594482421875,2.930908203125,-1.831817626953125,-0.082244873046875,75.0,60.0,15.0
950.4615384615383,46.518411282848064,,,,,,,36.225313450760375,36.36693916057193,0.04894297075728592,0.03811339226771487,953.846153846154,45.61846153846162,0.04782580645161299,61.53846153846154,17.599999999999994,59.2,12.5,179.6875,,,0.022151320131113254,0.022087272060115192,0.00076676949263591,1.0028997728114066,0.4921929144067984,0.4907697935029389,-3.812753761248534,2021-09-22 20:28:38,2021-09-22 20:28:38.000,0.6849958,0.52268296,0.022447642,0.5941206,0.5795731,0.7539789000000001,0.29753209999999997,0.72390395,0.34908417,0.6154208999999999,0.6184437,1.0441810999999999,0.4851155,0.29007685,0.7495921999999999,0.55839515,0.5299923000000001,0.29651418,0.6347361,0.22648434,837.6923,794.57874,812.71063,811.9048,714.7985,-0.4627685546875,0.0682373046875,0.9080810546875,1.757049560546875,-2.788848876953125,1.084136962890625,73.0,55.00000000000001,17.999999999999993
949.93894993895,46.488489704719704,,,,,,,36.23721974261486,36.38220473708027,0.04893839725985274,0.0381468932766087,953.846153846154,45.61846153846162,0.04782580645161299,67.30769230769238,17.460317460317462,60.317460317460316,12.6,179.6875,,,0.02246214257496688,0.021849341217855645,0.0007554257371102307,1.0280466743139351,0.4984176374474461,0.4848200474750469,-3.823584508107621,2021-09-22 20:28:39,2021-09-22 20:28:39.022,0.30708070000000004,0.3657951,-0.063094065,0.30449438,0.5973126999999999,0.61286926,0.11612981,0.56090456,0.78699416,0.28249009999999997,0.5946007,0.5267252,0.7421076999999999,0.31316888,0.7620851,0.64016294,0.7647307,0.12092451,0.6193243,0.2610301,757.1062,788.9377400000003,792.96704,786.5201400000003,670.4762,-0.479736328125,0.08319091796875,0.90545654296875,0.979461669921875,-2.3028564453125,2.07855224609375,66.0,54.0,12.0
949.7557997557996,46.45732541200506,,,,,,,36.217619694443776,36.363312740408674,0.048915021549697436,0.03813361255994016,953.846153846154,45.61846153846162,0.04782580645161299,67.30769230769238,17.460317460317462,60.317460317460316,12.6,179.6875,,,0.023140843029076662,0.02196257623032834,0.000758525810195549,1.0536488427583115,0.504576135921795,0.4788845348141627,-3.818415354543661,2021-09-22 20:28:40,2021-09-22 20:28:40.012,0.30708070000000004,0.0782515,0.072521895,0.30449438,0.5973126999999999,0.024934934,-0.15158463,0.56090456,0.78699416,0.504042,-0.033049345,0.5267252,0.7421076999999999,0.35313568,0.74011,0.64016294,0.7647307,0.18262702,0.51490176,0.2610301,823.5897,785.7143,799.81683,799.0110000000003,787.7289400000003,-0.4998779296875,0.0513916015625,0.87005615234375,-17.996673583984375,7.37213134765625,24.942626953125,56.99999999999999,55.00000000000001,1.9999999999999856
949.7557997558,46.45732541200506,,,,,,,36.11945991588723,36.26396828903247,0.048915021549697416,0.03803025991015188,953.846153846154,45.61846153846162,0.04782580645161299,67.30769230769238,17.460317460317462,59.523809523809526,12.6,179.6875,,,0.02422784953548127,0.022360833346093238,0.0007731504106091008,1.0834949288557814,0.5115479670310763,0.472127698439063,-3.8004443618864543,2021-09-22 20:28:41,2021-09-22 20:28:41.032,0.12853119999999998,0.5392825,0.45859265,0.37987244,-0.25590014,0.33814629999999996,0.25331712,-0.2929016,0.1390438,0.59114593,0.27394387,0.27570707,0.7387384,0.44312164,0.80614215,0.70525557,0.5224555999999999,0.15118718,0.8126085,0.6455816999999999,780.87915,806.26373,813.1135,804.2491,913.8461,-0.51507568359375,0.05877685546875,0.87908935546875,0.9869384765625,-2.310333251953125,1.861724853515625,56.00000000000001,54.0,2.0000000000000067
948.6153846153844,46.448603855796364,,,,,,,36.52049969897767,36.6567519004188,0.048964632673155435,0.03849874279003485,953.846153846154,45.61846153846162,0.04782580645161299,69.23076923076928,18.4,60.0,13.888888888888891,117.1875,,,0.02588359200755921,0.02301067737715572,0.0007990363446725178,1.1248513715313584,0.5208667772780563,0.4630538669023934,-3.771796936986776,2021-09-22 20:28:42,2021-09-22 20:28:42.001,0.50160974,0.35897747,0.47378168,0.27161762,0.59528124,0.09758868,0.10798088,0.14843072,0.94236624,0.5429390000000001,0.41735414,0.8541095,0.7831255,0.42380142,0.7990475,0.63426024,0.5704216999999999,0.21607861,0.7218460999999999,0.48477912,843.3333,796.99634,796.5934,807.8755,864.6886599999997,-0.48822021484375,0.064208984375,0.8907470703125,-1.801910400390625,-6.557159423828125,2.82623291015625,60.0,63.0,-3.0
948.6568986568983,46.26478323868466,,,,,,,36.69158199572639,36.83591863519624,0.04876872060297669,0.03867739964540821,953.846153846154,45.61846153846162,0.04782580645161299,69.23076923076928,19.047619047619047,60.317460317460316,14.0,195.3125,,,0.027399178575040428,0.023636547692172584,0.0008249184692179165,1.1591869900744374,0.5283231381771296,0.4557704172846205,-3.744961133818766,2021-09-22 20:28:43,2021-09-22 20:28:43.001,1.2026358,0.00787389,0.68597615,0.8793974,0.93105453,0.20561942,0.52432114,1.0904067,0.95409745,0.5336226,0.56088465,1.2454556,0.71305937,0.35008678,0.6631449,0.6540437,0.4956673,0.13345408,0.59839755,0.3234146,828.0219999999997,796.5934,796.1905,807.8755,782.0879,-0.480712890625,0.03729248046875,0.8966064453125,1.637420654296875,-4.583282470703125,-5.263671875,64.0,67.0,-3.0
948.1684981684979,45.87792983911663,,,,,,,36.58822522140246,36.73463077151384,0.04838584062614966,0.0385883155705732,953.846153846154,45.618461538461546,0.047825806451612905,69.23076923076928,19.047619047619047,59.523809523809526,14.0,195.3125,,,0.029186232999168962,0.02447048831071213,0.0008602573739268467,1.192711507370798,0.5353604272248041,0.4488599497165477,-3.710287446241903,2021-09-22 20:28:44,2021-09-22 20:28:44.000,0.92305213,0.055854722999999995,0.85114974,1.1410657,0.77036035,0.060601987,0.53128886,1.0495377000000001,0.71925724,0.378661,0.49556595,1.0180286,0.6753395000000001,0.5173929,0.55780673,0.68194044,0.17313519,0.22640143,0.47732258,0.29680383,833.2601,789.7436,806.6667,818.7546,809.0842,-0.46624755859375,0.0487060546875,0.9022216796875,2.49725341796875,-5.12908935546875,1.65985107421875,69.0,69.0,0.0
948.1846153846157,45.85452985254248,,,,,,,35.881185025361184,36.026532866062624,0.048360339440797984,0.037841981870594434,953.846153846154,45.61846153846145,0.04782580645161282,69.23076923076928,17.599999999999994,58.4,12.5,195.3125,,,0.030282541938930624,0.024601877674258504,0.000874376391739856,1.2309036871041728,0.5430989208636015,0.4412196718179449,-3.7049325107347797,2021-09-22 20:28:45,2021-09-22 20:28:45.031,0.26216185,-0.08368944,0.38485408,0.8095460999999999,0.49951932,-0.07748181400000001,-0.022645926,0.7429715,0.7400524,0.39348125,0.04598883,0.7513014,0.71760345,0.45588670000000003,0.67019373,0.6105322,0.22273955,0.25126442,0.56962705,0.21881394,881.2088,798.60803,772.01465,853.00366,901.75824,-0.44500732421875,0.13421630859375,0.89471435546875,2.01873779296875,-1.973876953125,-3.90289306640625,74.0,78.0,-4.0
947.6307692307691,46.016088873322964,,,,,,,36.146189992361926,36.285130878816965,0.04855909112224807,0.03814374877432828,953.846153846154,45.61846153846162,0.04782580645161299,69.23076923076928,18.4,58.4,12.5,195.3125,,,0.03113242782559665,0.02476076094401955,0.0008882133630610107,1.2573292030880032,0.5482856473472009,0.4360716716040716,-3.698495098842365,2021-09-22 20:28:46,2021-09-22 20:28:46.008,0.13860546,0.36447743,0.31197664,0.25094320000000003,0.4835467000000001,0.17944247,0.109527,0.69413203,0.58267295,0.24845749,0.06088347,0.46035525,0.6504215999999999,0.33104429999999996,0.59420276,0.65615046,0.19260335,0.27517909999999995,0.5282256999999999,0.18219392,814.3223,807.8755,798.60803,794.57874,786.1172,-0.474365234375,0.09515380859375,0.92437744140625,-0.157012939453125,-7.603912353515625,-2.355194091796875,73.0,78.0,-5.0
947.4358974358977,45.88382551386689,,,,,,,36.060435793065494,36.2012782147081,0.04842947753831688,0.038061082433817436,950.0,51.32076923076927,0.05402186234817817,67.30769230769238,18.253968253968253,58.73015873015874,12.6,195.3125,,,0.03201844189649375,0.02501663583455061,0.0009074059537336117,1.2798859969921654,0.5525900834814453,0.431749456420397,-3.688214242034536,2021-09-22 20:28:47,2021-09-22 20:28:47.000,0.8717466999999999,0.26667273,0.4562486,0.7072713,0.6344465,0.11228155,0.29047298,0.7342494,0.9128146999999999,0.41912,-0.039316203,0.93335605,0.6296162,0.27519596,0.61540157,0.7797064,0.6329093000000001,0.14768067,0.41020188,0.65887827,811.0989,805.4579,792.1612,805.4579,737.7655599999997,-0.4522705078125,0.0576171875,0.90814208984375,1.577606201171875,-4.523468017578125,-1.1962890625,70.0,88.0,-18.0
946.4615384615383,45.690394392271564,,,,,,,36.13958855134397,36.283580509783455,0.04827496156530644,0.03818389557602988,946.153846153846,45.61846153846162,0.04821463414634156,61.53846153846154,18.4,58.4,12.5,195.3125,,,0.03306231307022856,0.025384406111913747,0.0009358602735852256,1.3024654949367251,0.5567678833297911,0.4274722712380488,-3.6736202260932553,2021-09-22 20:28:48,2021-09-22 20:28:48.046,0.74898213,0.49170217,0.66227937,0.58873487,0.5097146,0.28061128,0.29371175,0.55730605,0.9707314,0.5227788,0.4606106,0.93877685,0.7508206999999999,0.13740797,0.5578904,0.69997996,0.59056664,-0.075153455,0.46359894,0.50747395,772.01465,801.4286,803.0403,801.02563,654.35895,-0.44744873046875,0.06884765625,0.9171142578125,2.415008544921875,-3.170166015625,0.8074951171875,62.0,94.0,-32.0
946.2769230769233,45.612875957780965,,,,,,,36.080121229411,36.22306435926398,0.04820246044832805,0.03812850165688552,946.153846153846,45.61846153846162,0.04821463414634156,61.53846153846154,18.4,58.4,11.363636363636365,187.5,,,0.03368942083399636,0.025603085111732912,0.000957790136076097,1.3158344272564946,0.5591577639428403,0.4249453824587036,-3.665042422580562,2021-09-22 20:28:49,2021-09-22 20:28:49.015,0.6948714,0.3297053,0.30894953,0.78445125,0.62549084,0.054812185,0.10851161,0.75955856,0.7703911,0.31843174,0.37106192,0.81916213,0.770351,0.17175417,0.570393,0.6044676,0.38464195,-0.08484389,0.49099812,0.21347572,808.2784,800.2198,788.5348,792.1612,713.9927,-0.4522705078125,0.06591796875,0.91534423828125,2.086029052734375,-3.4393310546875,0.4486083984375,53.0,100.0,-47.0
945.846153846154,45.20741788467864,,,,,,,36.08673354894409,36.230507247543294,0.0477957410947318,0.03815285752572163,946.153846153846,45.61846153846145,0.04821463414634138,61.53846153846154,18.4,58.4,11.363636363636365,187.5,,,0.034317800682406224,0.025842592446331032,0.0009864784404953694,1.3279550321306268,0.5612355922992791,0.4226314737471261,-3.655731278229744,2021-09-22 20:28:50,2021-09-22 20:28:50.004,0.62056226,-0.19293454,0.16750494,0.6525908,0.52278244,-0.23788522,0.2148592,0.7324762,0.7192568,0.2272675,0.120906845,0.82274956,0.51106274,0.028353285,0.57971734,0.57976276,0.44491354,0.09310577,0.46459480000000003,0.25906584,842.5274699999999,799.81683,794.17584,823.5897,680.9524,-0.44061279296875,0.07177734375,0.916015625,2.0037841796875,-3.357086181640625,0.306549072265625,43.0,100.0,-57.0
945.6,44.90850914412977,,,,,,,36.11977698920568,36.26609417527507,0.04749207819810677,0.03819773370262868,946.153846153846,45.61846153846145,0.04821463414634138,61.53846153846154,18.4,59.2,11.363636363636365,187.5,,,0.03461255568833526,0.02593503452722125,0.0010069551395965818,1.3345868366593512,0.5623070642245861,0.4213341903117489,-3.6521605398813666,2021-09-22 20:28:51,2021-09-22 20:28:51.017,0.6957982,0.050505508,0.17804381,0.71053004,0.42315504,-0.17836973,0.22747348,0.431963,0.89710146,0.21363942,0.4079458,0.8628062,0.706609,0.23839362,0.5418361999999999,0.4494049,0.45642155,0.07098521,0.32603255,0.2889922,625.34796,803.0403,799.41394,805.05493,632.1978,-0.374755859375,0.08270263671875,0.96185302734375,12.942352294921875,-6.05621337890625,-41.503753662109375,44.0,98.0,-54.0
945.723076923077,45.07955682987421,,,,,,,35.68782593578524,35.82605379521364,0.04766676200451951,0.03773602104740435,946.153846153846,45.61846153846145,0.04821463414634138,61.53846153846154,17.599999999999994,59.2,11.363636363636365,187.5,,,0.03465514305833914,0.025874605463896264,0.0010222693866240703,1.339349622420124,0.5630220459977976,0.420369735111024,-3.6544932752849775,2021-09-22 20:28:52,2021-09-22 20:28:52.000,1.0797197,0.8626610999999998,0.9961525,1.2218639999999998,0.8076619,0.4742272,0.7958908,0.9420643,0.8927632999999999,0.66222054,0.5427065,0.95391405,0.8547826,0.46429676,0.55897385,0.54660374,0.51561046,0.2877272,0.32463303,0.41601124,797.8022,794.17584,801.4286,793.36993,797.8022,-0.40179443359375,0.04864501953125,0.93804931640625,2.340240478515625,-4.822540283203125,4.568328857421875,47.0,100.0,-53.0
946.1538461538463,45.158497991279596,,,,,,,35.57141329476497,35.71022909363947,0.04772849381192151,0.0375958026692638,946.153846153846,45.618461538461546,0.048214634146341466,61.53846153846154,17.460317460317462,58.73015873015874,11.454545454545455,187.5,,,0.03444179113157289,0.025642557923342458,0.0010321992849148592,1.3431495888411538,0.563542805789097,0.4195681631227032,-3.6635018889047886,2021-09-22 20:28:53,2021-09-22 20:28:53.001,1.1631866000000002,0.62552243,0.4436483,1.2273486999999998,0.8851941999999999,0.22218335,0.12870966,1.0871343999999998,0.88468504,0.50847316,0.42404497,0.94710636,0.88093626,0.5601676999999999,0.56437933,0.5991561,0.50746316,0.35736826,0.33651605,0.533391,772.8205,815.9341,814.7253,790.9524,839.707,-0.3948974609375,0.0831298828125,0.93621826171875,-1.39068603515625,-0.680389404296875,15.35736083984375,54.0,95.0,-41.0
946.5811965811968,45.266396806195104,,,,,,,35.5381285365684,35.680283762332465,0.04782093387200747,0.037543666264365706,950.0,51.32076923076927,0.05402186234817817,61.53846153846154,17.460317460317462,57.936507936507944,11.454545454545455,187.5,,,0.03418359227694137,0.025370859355596218,0.0010404408800221351,1.3473565005357715,0.5641332273979364,0.4186963340241508,-3.674154033039764,2021-09-22 20:28:54,2021-09-22 20:28:54.001,0.7103351999999999,0.31063747,0.43665406,0.59746087,1.0336534,0.2729112,-0.011647656000000001,0.8365577,1.1655581,0.5063749,0.47922748,0.9331655999999999,0.85927176,0.48206756,0.7776165,0.7599756999999999,0.44017458,0.34066564,0.59547937,0.52745444,856.6300699999997,808.2784,833.2601,846.5567599999997,819.9634,-0.505859375,0.091552734375,0.8770751953125,-11.192779541015623,0.07476806640625,11.775970458984375,62.0,89.0,-27.0
946.2153846153847,45.313861658526676,,,,,,,35.681139691991525,35.822425903447645,0.047889584544163526,0.03770932101943692,946.153846153846,45.61846153846162,0.04821463414634156,61.53846153846154,17.599999999999994,57.6,12.5,195.3125,,,0.033799368457525125,0.024962814588022412,0.001048233731231474,1.3539886833811856,0.5651083921329152,0.4173656686123287,-3.69036797789508,2021-09-22 20:28:55,2021-09-22 20:28:55.000,0.25792550000000003,0.7261582,0.23598474,0.3308923,0.49499449999999995,0.68947905,-0.3645319,0.3992874,0.47989129999999997,0.72237253,-0.009256359,0.34283152,0.58088726,0.74138594,0.76999074,0.6780703,0.39994195,0.65605426,0.7041498,0.66776925,762.74725,764.7619,828.4249,771.6117,653.1502,-0.44305419921875,0.0965576171875,0.92169189453125,-1.1065673828125,-1.4056396484375,3.865509033203125,71.0,78.0,-7.0
945.6,44.9934355034629,,,,,,,35.70119466670396,35.841644133256345,0.047581890337841465,0.03775507050201349,946.153846153846,45.61846153846145,0.04821463414634138,61.53846153846154,17.599999999999994,57.6,12.5,195.3125,,,0.033359803754504605,0.02451159083361675,0.001049221823782906,1.360980769504069,0.5661821920071534,0.4160104276958049,-3.708609178056067,2021-09-22 20:28:56,2021-09-22 20:28:56.024,0.25792550000000003,0.7321146,0.50539833,1.1535262,0.49499449999999995,0.52584434,0.4753081,0.6703736,0.47989129999999997,0.6217864000000001,0.19954674,0.52068496,0.58088726,0.8394458,0.8870986999999999,0.49380326,0.39994195,0.79615295,1.0857593,0.5882163,689.0110000000003,851.3919699999999,753.4798599999997,648.315,745.82416,-0.63287353515625,0.0208740234375,0.812255859375,34.699859619140625,-10.7366943359375,-41.443939208984375,77.0,67.0,10.0
945.1692307692309,44.72537140268627,,,,,,,35.297930285220815,35.441072611938175,0.047319961279617934,0.03734561931993217,946.153846153846,45.61846153846145,0.04821463414634138,61.53846153846154,16.8,56.8,11.363636363636365,187.5,,,0.03261316735735384,0.02377042772608894,0.0010413897737264217,1.3720059114274863,0.5679264424443686,0.41393877221234177,-3.739313003405548,2021-09-22 20:28:57,2021-09-22 20:28:57.003,0.25792550000000003,0.5340638000000001,0.4281182,1.1535262,0.49499449999999995,0.1406644,0.49167085,0.6703736,0.47989129999999997,0.35837975,0.21405934,0.52068496,0.58088726,0.6840871999999999,0.8798973,0.49380326,0.39994195,0.6470175,1.1193633,0.5882163,780.4762,805.8608,788.1319,811.9048,917.8755,-0.5819091796875,0.10302734375,0.84478759765625,-0.695343017578125,3.087921142578125,11.05072021484375,78.0,59.0,19.0
945.054945054945,44.62826642375723,,,,,,,35.223714443136146,35.36281559571113,0.04722293307630125,0.037271604817737086,946.153846153846,45.61846153846145,0.04821463414634138,61.53846153846154,16.666666666666664,56.349206349206355,11.454545454545455,187.5,,,0.032137654335759484,0.023227261927038775,0.0010353197461529767,1.3836178554626857,0.5698141818175892,0.4118291619090457,-3.762428607117575,2021-09-22 20:28:58,2021-09-22 20:28:58.026,0.25792550000000003,0.5817604000000001,0.45623112,0.5396911,0.49499449999999995,0.43244755,0.026907868999999997,0.07370962,0.47989129999999997,0.37529388,0.23190439999999998,0.626941,0.58088726,0.7687953000000001,0.62928283,0.7211177,0.39994195,0.4909393,0.71113163,0.5034834,778.46155,802.2344400000003,803.0403,774.0293,804.65204,-0.594482421875,0.13916015625,0.82281494140625,4.927215576171875,0.897216796875,-3.671112060546875,76.0,48.0,28.0
944.3833943833943,44.89738673659454,,,,,,,35.27071970684825,35.40208868391545,0.04754148262624725,0.03734788213835246,946.153846153846,45.61846153846145,0.04821463414634138,61.53846153846154,16.666666666666664,56.349206349206355,11.454545454545455,187.5,,,0.030610622565770768,0.021897235587636774,0.0009920060669505507,1.3979217807317006,0.5721626215664791,0.4092951618988279,-3.82139487900225,2021-09-22 20:28:59,2021-09-22 20:28:59.033,1.0903433999999999,0.6996557,0.45770204,0.8953163000000001,0.81273115,0.35591146,0.01764464,0.7847741,0.6543665,0.43786597,0.2315709,0.8914863000000001,0.61048913,0.7529529,0.644548,0.6618542,0.39070788,0.43099537,0.62928516,0.38428688,774.83514,799.41394,772.01465,772.8205,908.20514,-0.55126953125,0.1595458984375,0.8516845703125,1.936492919921875,-1.801910400390625,-3.835601806640625,75.0,42.0,33.0
