HRV_MeanNN,HRV_SDNN,HRV_SDANN1,HRV_SDNNI1,HRV_SDANN2,HRV_SDNNI2,HRV_SDANN5,HRV_SDNNI5,HRV_RMSSD,HRV_SDSD,HRV_CVNN,HRV_CVSD,HRV_MedianNN,HRV_MadNN,HRV_MCVNN,HRV_IQRNN,HRV_pNN50,HRV_pNN20,HRV_HTI,HRV_TINN,HRV_ULF,HRV_VLF,HRV_LF,HRV_HF,HRV_VHF,HRV_LFHF,HRV_LFn,HRV_HFn,HRV_LnHF,Time,TimeStamp,Delta_TP9,Delta_AF7,Delta_AF8,Delta_TP10,Theta_TP9,Theta_AF7,Theta_AF8,Theta_TP10,Alpha_TP9,Alpha_AF7,Alpha_AF8,Alpha_TP10,Beta_TP9,Beta_AF7,Beta_AF8,Beta_TP10,Gamma_TP9,Gamma_AF7,Gamma_AF8,Gamma_TP10,RAW_TP9,RAW_AF7,RAW_AF8,RAW_TP10,AUX_RIGHT,Accelerometer_X,Accelerometer_Y,Accelerometer_Z,Gyro_X,Gyro_Y,Gyro_Z,Attention,Meditation,A_M
682.3165340406719,72.25133270403836,,,,,,,32.688057160973315,32.78100174192616,0.10589122364684128,0.047907467473190135,684.6153846153846,91.23692307692309,0.1332674157303371,121.1538461538462,10.919540229885056,50.0,19.33333333333333,265.625,,,0.021106510182104972,0.00840663045524817,0.00030863269853502565,2.5106979894576438,0.7077550333569513,0.2818957263393673,-4.778734544587282,2021-09-23 20:53:26,2021-09-23 20:53:26.002,0.63551563,0.2493478,0.66688937,0.8009658000000001,0.37139386,0.20319541,0.3687089000000001,0.37009925,0.52965117,0.6195357,0.59472346,0.6736224000000001,0.57644683,1.0638515,0.7273611999999999,0.6169802,0.54410267,0.84958565,0.5924996,0.61767006,799.41394,780.87915,803.8461,812.3077,675.7143,-0.69677734375,0.07989501953125,0.74407958984375,1.891632080078125,-3.461761474609375,-0.37384033203125,35.0,56.00000000000001,-21.000000000000007
682.9010989010989,72.22691598604162,,,,,,,32.59399061440525,32.686974709262564,0.10576482612528623,0.04772871308430223,692.3076923076923,79.83230769230782,0.1153133333333335,119.23076923076927,10.857142857142858,49.714285714285715,19.444444444444443,265.625,,,0.02080075479644461,0.008645436046660075,0.0003240363280850183,2.4059809920727373,0.6987099788265859,0.29040544423613746,-4.750723721944798,2021-09-23 20:53:27,2021-09-23 20:53:27.003,0.81424254,0.27117792,0.53706616,0.92429084,0.5518276999999999,-0.107180886,0.33927286,0.6402854,0.52965117,0.61510885,0.43202250000000003,0.87329626,0.5861828,1.1602358,0.77147686,0.67592585,0.59024763,0.7937379,0.48778869999999996,0.59008676,822.3810000000003,808.2784,802.2344400000003,811.5018299999997,752.674,-0.6962890625,0.0802001953125,0.7412109375,1.3458251953125,-3.207550048828125,-0.2691650390625,40.0,44.0,-4.0
682.9796640141467,72.48451031563398,,,,,,,32.47284641592668,32.56683264366402,0.10612982221112308,0.04754584671682708,692.3076923076923,79.83230769230782,0.1153133333333335,121.1538461538462,10.919540229885056,48.85057471264368,19.33333333333333,273.4375,,,0.02044554194359552,0.008717224443841778,0.00033254971701123464,2.345418782699708,0.6931792787435795,0.29554605934625106,-4.742454389453289,2021-09-23 20:53:28,2021-09-23 20:53:28.008,0.81424254,0.31176355,0.8650578999999999,1.5119008999999999,0.5518276999999999,-0.0065708645,0.63807917,1.2382673,0.52965117,0.39157125,0.8712472,1.3477411,0.5861828,1.1208116000000001,0.8158305,0.8589159,0.59024763,0.78415054,0.6310687,0.53838015,828.0219999999997,755.4945,811.9048,831.6484,689.81683,-0.6937255859375,0.0780029296875,0.7392578125,1.55517578125,-3.506622314453125,-0.186920166015625,41.0,34.0,7.0
682.8028293545535,72.34802778479316,,,,,,,31.100924479922327,31.186612498180537,0.10595742236918236,0.0455489097918966,692.3076923076923,79.83230769230782,0.1153133333333335,119.23076923076927,10.344827586206897,48.27586206896552,19.33333333333333,273.4375,,,0.02062836463152416,0.00895148595756921,0.0003473766710298884,2.304462603114648,0.6892841910219517,0.2991084299178187,-4.715935731697943,2021-09-23 20:53:29,2021-09-23 20:53:29.000,0.81424254,0.578332,1.121578,1.7884244999999999,0.5518276999999999,0.19575144,0.85317713,1.5258503,0.52965117,0.579739,0.8712472,1.377915,0.5861828,1.1337478,0.7666536999999999,0.94262385,0.59024763,0.8380103999999999,0.59440345,0.4624929,831.2454,821.5751,771.6117,819.5604,877.98535,-0.69500732421875,0.07666015625,0.74407958984375,1.547698974609375,-3.207550048828125,-0.216827392578125,42.0,16.0,26.0
683.2087912087912,72.05683994715294,,,,,,,30.983998476627804,31.07338694158283,0.10546825637249754,0.04535070226746975,692.3076923076923,79.83230769230782,0.1153133333333335,115.38461538461547,10.285714285714283,48.0,19.444444444444443,273.4375,,,0.020068173685294958,0.008794285201360967,0.00034637643877871564,2.2819562051716598,0.6870583322375704,0.3010830491314739,-4.73365317739155,2021-09-23 20:53:30,2021-09-23 20:53:30.001,1.2593823999999998,0.121061526,0.44268888,1.0672503,0.42276576,-0.24712688,0.19630824,0.41750398,0.5053951,0.6128342,0.65333545,0.7195008,0.6513406,0.96022445,0.57366717,0.78248143,0.45523748,0.73184913,0.35336325,0.5035223,799.41394,798.20514,797.8022,792.5641,1122.1611,-0.69757080078125,0.0810546875,0.7431640625,1.9140625,-3.551483154296875,-0.515899658203125,49.0,10.0,39.0
682.8131868131867,72.30005952743028,,,,,,,31.153655128165266,31.243061526000695,0.10588556419782663,0.04562544445511521,692.3076923076923,79.83230769230782,0.1153133333333335,119.23076923076927,10.285714285714283,48.57142857142857,19.444444444444443,273.4375,,,0.019624218759283902,0.008631488426349348,0.00034405252018021977,2.2735613824583307,0.6861672601848781,0.3018028303431803,-4.7523383175706035,2021-09-23 20:53:31,2021-09-23 20:53:31.013,1.3393959,-0.05354824,0.34534928,1.1938024999999999,0.44424817,-0.1399404,0.014503733999999999,0.45090297,0.82727885,0.76910764,0.6437401999999999,1.0517683999999998,0.7229909000000001,0.8708657,0.4896755,0.78895617,0.45277983,0.78493506,0.33884013,0.5338911,777.6557,802.2344400000003,794.9817,767.5824,679.34064,-0.69659423828125,0.07958984375,0.7396240234375,2.07855224609375,-3.297271728515625,-0.157012939453125,44.0,14.000000000000002,30.0
683.2449160035368,72.35780835992045,,,,,,,31.50520429816539,31.594642453230005,0.10590317858954387,0.04611114339854423,692.3076923076923,79.83230769230782,0.1153133333333335,121.1538461538462,10.919540229885056,48.85057471264368,19.33333333333333,273.4375,,,0.01911676107670477,0.008390177739994157,0.00033536363982468345,2.2784691420277454,0.6866084838549552,0.30134640456174955,-4.780693573984371,2021-09-23 20:53:32,2021-09-23 20:53:32.009,0.067997865,-0.05337462,-0.3328454,-0.12294579,0.08426729,0.045493316,-0.32416984,0.07682451,1.0069398999999999,0.7409033,0.44044352,1.0752867,0.9318704,1.0648377,0.5437023,0.8779631999999999,0.3165361,0.9365749,0.30150387,0.4504532,818.3516,803.4432400000003,798.60803,834.0659,844.1392,-0.69384765625,0.0789794921875,0.73638916015625,2.265472412109375,-3.03558349609375,0.515899658203125,42.0,23.0,19.0
683.7312113174181,72.13108890675788,,,,,,,31.505204298165378,31.594642453230005,0.1054962647789256,0.046078347421731614,692.3076923076923,79.83230769230782,0.1153133333333335,119.23076923076927,10.919540229885056,48.85057471264368,19.33333333333333,273.4375,,,0.01809024582786872,0.007887824877872653,0.00031338432889796745,2.293439079589158,0.6880656016958582,0.30001477162372103,-4.842434863009304,2021-09-23 20:53:33,2021-09-23 20:53:33.000,-0.10958783,0.11378808,0.46674737,-0.07672129,0.29167459999999995,0.08919221,0.0014942951000000001,0.20431475,0.74551594,0.6769718000000001,0.43628514,0.71925,0.79558766,0.9473623999999999,0.4372805,0.5940246,0.021044547,0.72700816,0.19516763,0.39798996,819.9634,804.2491,807.47253,850.9889999999997,798.60803,-0.69525146484375,0.080078125,0.74420166015625,1.80938720703125,-3.581390380859375,-0.022430419921875,36.0,35.0,1.0
685.0132625994695,72.42645252954551,,,,,,,31.76468874347208,31.852399453121595,0.10573000040131136,0.04637091057614317,692.3076923076923,79.83230769230782,0.1153133333333335,121.1538461538462,11.494252873563216,48.85057471264368,19.33333333333333,273.4375,,,0.01714232335291101,0.00742847228615688,0.0002911470467994152,2.3076512494845143,0.6895005579212244,0.2987888911182943,-4.902435055639349,2021-09-23 20:53:34,2021-09-23 20:53:34.007,0.6776549,0.03907480000000002,0.77371746,0.66421974,-0.09381435,0.039482627,-0.1828225,-0.16256084,1.2940811,0.55011857,0.41137934,1.1185821000000002,0.8905473,0.6979352,0.22670726,0.82316405,0.15253587,0.59022754,-0.1704687,0.30349067,781.28204,804.65204,802.6374,775.64105,738.5714,-0.6953125,0.08135986328125,0.741943359375,1.74957275390625,-3.745880126953125,-0.6280517578125,25.0,43.0,-18.0
685.5879752431476,72.69674431024187,,,,,,,31.76468874347208,31.852399453121595,0.10603561750694296,0.046332038907488944,692.3076923076923,79.83230769230782,0.1153133333333335,121.1538461538462,11.494252873563216,48.85057471264368,19.33333333333333,273.4375,,,0.016309248646436045,0.007032046295806489,0.00026957554870391155,2.3192749251611087,0.6907516879858285,0.29783087830255633,-4.9572775350307055,2021-09-23 20:53:35,2021-09-23 20:53:35.039,0.5058377000000001,0.05275367,0.7733392,0.8214701999999999,0.09043887,-0.06393384,0.17332347,0.50390244,1.3252286,0.71356994,0.35704377,1.0578865,0.82086515,0.72325885,0.28467858,0.7550588,0.09646685,0.62996835,0.0675538,0.38166603,839.304,802.2344400000003,797.3993,836.08057,699.4872,-0.69317626953125,0.07928466796875,0.73822021484375,1.742095947265625,-3.372039794921875,-0.16448974609375,18.0,48.0,-30.0
686.3050244553135,73.13963315140855,,,,,,,31.542170033721813,31.618870136707486,0.10657015546324446,0.04595940421499214,700.0,91.23692307692309,0.13033846153846154,123.07692307692308,10.982658959537574,47.97687861271676,19.222222222222218,273.4375,,,0.015391836410647538,0.0066219637583354455,0.00024384887026364025,2.3243613182378042,0.6915301963611391,0.2975140701814025,-5.017363312790295,2021-09-23 20:53:36,2021-09-23 20:53:36.015,0.59220105,-0.16887297,0.4942255999999999,0.75455284,0.33642855,-0.3923779000000001,-0.014660925,0.47192279,1.0063246,0.62702334,0.4221156,1.0857221000000001,0.7145022,0.5938647,0.35628662,0.7107427,0.2868126,0.46981546,-0.13871834,0.27236915,808.2784,806.6667,799.81683,797.8022,664.43225,-0.69415283203125,0.0794677734375,0.744384765625,1.667327880859375,-3.7384033203125,0.01495361328125,6.0,54.0,-48.0
687.8868258178603,73.33221358876344,,,,,,,31.41278955796036,31.477419921010327,0.10660505600114582,0.04566563623400149,700.0,91.23692307692309,0.13033846153846154,115.38461538461547,10.919540229885056,47.70114942528736,19.33333333333333,273.4375,,,0.01445413817387544,0.006238683628817982,0.00022003517752108227,2.3168570541240943,0.6911603798347777,0.2983180937315429,-5.076986075775537,2021-09-23 20:53:37,2021-09-23 20:53:37.018,0.7686423000000001,-0.13767615,0.6603608,0.9269786,0.5580307,-0.24840683,-0.058892099999999996,0.65779024,1.1389703000000002,0.58877355,0.37546587,1.2231893999999999,0.7158707,0.5415565999999999,0.2816277,0.7823048,0.38313544,0.33094895,-0.23567986,0.30871224,817.9487,812.71063,778.46155,807.0696,711.9780000000003,-0.6943359375,0.080322265625,0.74127197265625,1.562652587890625,-3.51409912109375,-0.3887939453125,0.0,55.00000000000001,-55.00000000000001
689.728768341485,72.78813787592556,,,,,,,31.51489149360759,31.583696578826373,0.10553153821748107,0.045691716715525715,700.0,91.23692307692309,0.13033846153846154,115.38461538461547,10.982658959537574,47.97687861271676,19.222222222222218,273.4375,,,0.013580528465923076,0.005915180170502845,0.000197999317504544,2.295877399245576,0.6895871766602835,0.30035888540341105,-5.130233322082825,2021-09-23 20:53:38,2021-09-23 20:53:38.003,0.7274576,0.45169319999999996,0.918544,0.8213372999999999,0.5531853,0.0531615,0.3653107,0.6993258000000001,1.1658543,0.6048508,0.42745959999999994,0.9980969999999999,0.56481177,0.48003549999999995,0.009105286,0.6078636,0.15438433,0.33457035,-0.33455690000000005,0.31967115,802.6374,805.8608,806.6667,809.8901400000003,907.3993,-0.69451904296875,0.07928466796875,0.73712158203125,1.712188720703125,-2.94586181640625,0.112152099609375,0.0,61.0,-61.0
691.5921288014313,71.68516687746377,,,,,,,31.623323722744104,31.697708425668484,0.1036523752832443,0.04572539565704591,700.0,85.53461538461536,0.12219230769230767,109.61538461538464,11.046511627906975,48.25581395348838,17.2,203.125,,,0.012596173609469026,0.005599505896136333,0.0001734480296245718,2.2495151970748712,0.6857251976345079,0.3048324361294301,-5.185076917966577,2021-09-23 20:53:39,2021-09-23 20:53:39.018,0.42035422,0.08022985,0.5373680000000001,0.49890209999999996,0.5466948,0.20134836,0.17553821,0.62126535,1.2940892,0.44671366,0.45513782,1.3980975,0.68187565,0.6542386,-0.0073511475,0.5834076,0.19219306,0.6351991,-0.376519,0.35202995,804.65204,803.4432400000003,805.4579,813.1135,793.7729,-0.6976318359375,0.08209228515625,0.74298095703125,1.876678466796875,-3.521575927734375,-0.22430419921875,0.0,56.00000000000001,-56.00000000000001
692.9374718848402,70.77919908441697,,,,,,,31.699731151844173,31.791791860917648,0.10214370265168718,0.04574688545218748,700.0,79.83230769230764,0.11404615384615376,107.69230769230774,11.695906432748535,47.95321637426901,17.1,203.125,,,0.011828994103992409,0.0053822564444572394,0.00015538043841756958,2.197776011987344,0.6811334975066602,0.3099194339148072,-5.224647579269799,2021-09-23 20:53:40,2021-09-23 20:53:40.000,0.43589285,-0.26085162,0.20599604,0.507246,0.7026228,-0.010293227,0.11561908,0.51348406,1.1991370000000001,0.24997103,0.29590827,1.3555396999999998,0.72465575,0.69302,0.007651583000000002,0.6761951999999999,0.3018088,0.6075768,-0.27075577,0.2409469,815.9341,801.8315,794.57874,825.2015,770.80585,-0.6947021484375,0.08026123046875,0.7353515625,2.130889892578125,-3.491668701171875,0.246734619140625,3.0,41.0,-38.0
693.5152057245081,70.48830791672279,,,,,,,31.304387945798613,31.396195007947608,0.10163916715147492,0.04513871893132501,707.6923076923077,79.83230769230764,0.11280652173913035,107.69230769230774,11.046511627906975,47.67441860465117,17.2,203.125,,,0.011242912562161264,0.005263619056351346,0.00014062124729197204,2.1359662319397907,0.6753654905912272,0.3161873443934972,-5.2469364552922,2021-09-23 20:53:41,2021-09-23 20:53:41.001,0.37025428,-0.28092954,-0.103852026,0.3485687,0.51934844,-0.12775514,-0.25637689999999996,0.44848818,1.293197,0.29132736,0.2894677,1.3375636,0.8331221,0.5641275,-0.075457074,0.7371228,0.28212917,0.27138072,-0.2968102,0.31903896,833.663,805.4579,795.78754,820.7692,1106.8499,-0.69708251953125,0.08056640625,0.73785400390625,1.936492919921875,-3.237457275390625,0.381317138671875,2.0,29.0,-27.0
693.9271255060728,70.6846362698818,,,,,,,31.017101151953558,31.108202724113358,0.10186175705169667,0.04469792289692257,707.6923076923077,79.83230769230764,0.11280652173913035,107.69230769230774,11.111111111111109,46.783625730994146,17.1,273.4375,,,0.010672454240229294,0.005209965026532708,0.00012554631700064842,2.0484694591763772,0.6666964758504152,0.32546078383734955,-5.25718213599703,2021-09-23 20:53:42,2021-09-23 20:53:42.000,0.74859434,-0.25945443,0.17117828,0.6417194,0.64792055,-0.19800434,-0.00041422676,0.5889498000000001,1.1697153999999998,0.44048244,0.1953333,1.1545751,0.7980640999999999,0.5543624,-0.02955721,0.8315077,0.22103034,0.23401666,-0.38340783,0.28096634,824.7985,796.99634,799.41394,836.8865,738.1685,-0.69769287109375,0.07977294921875,0.73974609375,1.996307373046875,-3.4393310546875,0.396270751953125,4.0,21.0,-17.0
694.3649373881931,70.61322179614652,,,,,,,30.797333095637697,30.887747721261622,0.1016946824270151,0.04435323766703975,707.6923076923077,79.83230769230764,0.11280652173913035,107.69230769230774,11.046511627906975,45.930232558139544,15.636363636363635,273.4375,,,0.010251572426249191,0.005195105394969858,0.00011487344112780437,1.9733136571541432,0.658775738576537,0.33384238546577777,-5.260038366865834,2021-09-23 20:53:43,2021-09-23 20:53:43.001,0.59847504,-0.39367729999999995,0.13512917,0.49794609999999995,0.4919643,-0.2726818,-0.043850455,0.38019267,1.3697033,0.32770285,0.28588295,1.044071,0.78021944,0.5192519,-0.06176998,0.80555815,0.2037372,0.22761096,-0.39822298,0.3465298,800.2198,802.2344400000003,808.6813400000003,808.2784,674.1025400000002,-0.69769287109375,0.08331298828125,0.74261474609375,1.831817626953125,-3.925323486328125,-0.366363525390625,8.0,20.0,-12.0
693.7471884840304,70.47156485775184,,,,,,,30.763574140674983,30.85282093895823,0.10158104570015716,0.044344070363584814,707.6923076923077,79.83230769230764,0.11280652173913035,107.69230769230774,11.111111111111109,45.614035087719294,15.545454545454545,273.4375,,,0.009968245988975472,0.005254253730903614,0.00010663859775735924,1.89717636404688,0.6502809083213,0.3427624972800006,-5.248717295983519,2021-09-23 20:53:44,2021-09-23 20:53:44.011,0.91230226,-0.25676215,0.26153454,1.0686544,0.5298803000000001,-0.27551149999999996,0.046967762999999996,0.69060105,1.386679,0.14837997,0.35746290000000003,1.0302429,0.66386265,0.5163609,0.13097622,0.757832,0.19260536,0.20137382,-0.13390902,0.36320317,807.8755,807.47253,791.75824,810.293,838.9011,-0.697021484375,0.0843505859375,0.74041748046875,2.01873779296875,-3.39447021484375,-0.49346923828125,12.0,30.0,-18.0
693.0232558139536,70.07905258220461,,,,,,,30.9654114754602,31.050813905147425,0.10112078057163752,0.04468163400821438,707.6923076923077,79.83230769230764,0.11280652173913035,107.69230769230774,11.627906976744184,45.930232558139544,15.636363636363635,273.4375,,,0.009773073301588959,0.005413383901376684,9.918017466691783e-05,1.8053538192817915,0.6393631524904467,0.3541483922219741,-5.2188808915730265,2021-09-23 20:53:45,2021-09-23 20:53:45.008,-0.036151655,-0.34892917,0.07879979,0.51335084,0.056927994,-0.24351092,-0.1968271,0.3487989,0.20992385,-0.05468172,0.26167887,0.5507699,0.36312300000000003,0.5631029000000001,0.19907935,0.53147733,0.22324653,0.29287165,-0.13253656,0.3371402,776.8498,805.4579,796.1905,780.07324,722.8571,-0.69476318359375,0.08258056640625,0.741455078125,2.093505859375,-3.30474853515625,0.396270751953125,18.0,36.0,-18.0
692.6207513416816,69.79258002991762,,,,,,,30.373068180567607,30.46213610746009,0.10076593849479937,0.04385237970668895,707.6923076923077,79.83230769230764,0.11280652173913035,107.69230769230774,11.046511627906975,45.930232558139544,15.636363636363635,273.4375,,,0.009698544277550878,0.005578910933982678,9.494758261356729e-05,1.7384296670653734,0.6309062029810651,0.3629173011330921,-5.188761694759053,2021-09-23 20:53:46,2021-09-23 20:53:46.001,-0.07960704,-0.537429,-0.28527853,-0.31075832,0.07112625,-0.34584934,-0.12649117,0.13126071,0.41878483,0.20510587,0.20777779999999998,0.88362813,0.43717387,0.55505216,0.22807245,0.5875262,0.22606379,0.26137117,-0.2036142,0.395011,824.7985,803.4432400000003,806.6667,817.9487,730.1098599999997,-0.69427490234375,0.07928466796875,0.7362060546875,1.7047119140625,-3.5589599609375,-0.179443359375,24.0,41.0,-17.0
692.8025191183085,70.07601759119369,,,,,,,30.507940342591038,30.596855778346352,0.10114861833986337,0.04403555053670534,707.6923076923077,79.83230769230764,0.11280652173913035,107.69230769230774,11.111111111111109,46.783625730994146,15.545454545454545,273.4375,,,0.009642591950365166,0.005738294274395202,9.167050438781004e-05,1.6803934216813001,0.6232061138415375,0.3708691701601612,-5.160593277552363,2021-09-23 20:53:47,2021-09-23 20:53:47.006,0.10575453,-0.15143610000000002,0.3442505,0.25387818,0.17620987,-0.2637873,0.19678654,0.07430657,0.3853896,0.13673934,0.19115643,0.8412639000000001,0.41682404,0.5793646,0.5408021,0.51955986,0.25568184,0.35745522,0.06666022,0.45306602,810.696,809.0842,792.1612,818.3516,983.5531,-0.6976318359375,0.0826416015625,0.7415771484375,2.0635986328125,-3.2000732421875,0.381317138671875,30.0,40.0,-10.0
693.6940966010733,70.35723920770556,,,,,,,30.57745001059588,30.663932974718428,0.10142401319607353,0.044079155582291515,707.6923076923077,79.83230769230764,0.11280652173913035,107.69230769230774,11.046511627906975,47.093023255813954,15.636363636363635,273.4375,,,0.009700726211508855,0.005971339032334278,8.978379862632835e-05,1.6245478876647719,0.6154561045072038,0.378847622271018,-5.120784083204328,2021-09-23 20:53:48,2021-09-23 20:53:48.000,0.2560695,-0.41230959999999994,-0.24229954,0.33863524,0.058107097,-0.23263207,-0.3175231,0.3365127,1.1037618,0.33608094,0.16360265,1.2030656000000002,0.57212025,0.7170965,0.5402948000000001,0.48096654,0.42318335,0.5687143,0.31644335,0.23901875,828.8278,788.9377400000003,800.2198,832.4542,758.315,-0.69830322265625,0.08404541015625,0.74139404296875,1.876678466796875,-4.119720458984375,-0.007476806640625,35.0,40.0,-5.0
694.2869995501575,70.96048905421083,,,,,,,30.68427184747272,30.76738996876541,0.10220627651128072,0.044195371463607525,715.3846153846154,79.83230769230764,0.1115935483870967,107.69230769230774,11.111111111111109,47.368421052631575,15.545454545454545,273.4375,,,0.009899208772890172,0.006205134291831098,9.046900242786278e-05,1.5953254687690206,0.6112580208924145,0.3831556838142071,-5.082378218040649,2021-09-23 20:53:49,2021-09-23 20:53:49.013,-0.10337121,-0.44222659999999997,-0.33972505,0.17950483,0.014247651,-0.23361291,-0.41035604,0.4111495,1.1273011,0.39111176,0.11648173,1.2076154,0.6060972,0.79795516,0.35136217,0.5369625,0.37296024,0.566154,0.4525409000000001,0.33950484,802.6374,800.6227,800.2198,777.6557,829.2308,-0.6968994140625,0.08251953125,0.73779296875,1.83929443359375,-3.90289306640625,-0.37384033203125,37.0,43.0,-6.0
694.961763382816,71.34197527701811,,,,,,,30.661576377024737,30.742478128575502,0.1026559719339836,0.04411980340871642,715.3846153846154,79.83230769230764,0.1115935483870967,111.53846153846158,11.111111111111109,47.368421052631575,15.545454545454545,273.4375,,,0.01023574206635492,0.006476696707019884,9.29972883053886e-05,1.580395459194612,0.6090732801450176,0.3853929575673474,-5.039544666028749,2021-09-23 20:53:50,2021-09-23 20:53:50.016,-0.11707899,-0.7060603,-0.16922083,-0.2578762,0.03133989,-0.35030207,-0.48410059999999994,0.18566188,0.95936316,0.2782691,0.13377082,0.80959064,0.5229655,0.7615301999999999,0.42632774,0.49937135,0.35215154,0.5540255999999999,0.38978556,0.43534526,803.8461,817.1429,799.0110000000003,802.2344400000003,666.4469,-0.69720458984375,0.080322265625,0.73944091796875,2.1832275390625,-3.207550048828125,-0.0,41.0,43.0,-2.0
696.289592760181,71.63539289597945,,,,,,,30.454696408184077,30.520320998438965,0.1028816079413274,0.04373854890959631,715.3846153846154,79.83230769230764,0.1115935483870967,115.38461538461536,10.588235294117649,47.058823529411754,15.454545454545455,273.4375,,,0.010884850611174886,0.006879960783213282,9.907879367885016e-05,1.5821093977357124,0.6093214018101111,0.38513228142261297,-4.979142327167478,2021-09-23 20:53:51,2021-09-23 20:53:51.018,-0.112065315,-0.5348892,0.073856264,-0.15016116,-0.1553474,-0.36737123,-0.46592134,0.03049282,0.48965088,0.094119996,-0.16832943,0.553696,0.44617638,0.70466495,0.4519995,0.48521304,0.19973579,0.21639144,0.27783978,0.40818536,794.17584,803.8461,808.2784,792.96704,708.3516,-0.6947021484375,0.083984375,0.736572265625,2.1234130859375,-3.06549072265625,-0.231781005859375,43.0,46.0,-3.0
697.7957714799821,71.45974130468794,,,,,,,30.43369082233152,30.5087166917654,0.10240781647777286,0.043614037324679576,715.3846153846154,79.83230769230764,0.1115935483870967,115.38461538461536,10.526315789473683,47.368421052631575,15.545454545454545,273.4375,,,0.01164324280350236,0.007278485756181625,0.00010666869819507641,1.5996792730704656,0.6118877299916187,0.3825065063305756,-4.9228324389331535,2021-09-23 20:53:52,2021-09-23 20:53:52.005,-0.019854337,-0.41678756,0.112104304,0.20739014,-0.19495232,-0.30854413,-0.2763782,0.14150968,0.75308114,0.13576211,-0.0036555691999999996,0.72030234,0.5773264,0.65256745,0.58322823,0.53448623,0.36762297,0.48271176,0.35867092,0.28969646,773.6264,801.8315,789.7436,763.5531,954.9450699999999,-0.697998046875,0.07989501953125,0.745361328125,1.712188720703125,-3.1402587890625,-0.485992431640625,46.0,45.0,1.0
699.0950226244344,71.04941236577773,,,,,,,30.552261877930388,30.6343495518394,0.10163055102159793,0.04370258818784864,715.3846153846154,79.83230769230764,0.1115935483870967,107.69230769230762,10.588235294117649,48.235294117647065,15.454545454545455,273.4375,,,0.012630257299480174,0.007746234766357241,0.00011666514046378696,1.630502777211812,0.6163158351996949,0.3779912820839261,-4.860548390272787,2021-09-23 20:53:53,2021-09-23 20:53:53.007,0.08469789,-0.08371964,0.37416536,0.30838150000000003,-0.19074747,-0.42930052,0.11119889,0.23503886,0.623183,0.13090448,0.08595819,0.62790114,0.5072401,0.6280085,0.59746593,0.46640095,0.5186843,0.44823176,0.46535164,0.3484349,776.4469,803.4432400000003,792.96704,791.3553,823.1868,-0.695068359375,0.08074951171875,0.73779296875,1.936492919921875,-3.648681640625,-0.01495361328125,51.0,38.0,13.0
700.1820664542557,70.86965652166417,,,,,,,30.591289504028783,30.676934624801806,0.10121604068003393,0.043690478476468335,715.3846153846154,68.42769230769235,0.09565161290322588,107.69230769230762,10.650887573964498,47.92899408284024,15.363636363636365,273.4375,,,0.01424051808714732,0.008447852113017759,0.00013287197467136666,1.6856968962800996,0.6240027592735266,0.3701749470207488,-4.773843057732799,2021-09-23 20:53:54,2021-09-23 20:53:54.001,0.08445463,-0.14934951,0.20697397,0.17313941,0.058547935999999995,-0.22347942,-0.17928801,0.2623011,0.5695084,0.2717325,0.08707538,0.64468104,0.5102686,0.6504503,0.6021368,0.59711134,0.12536761,0.5596065,0.35810822,0.6174672,803.4432400000003,790.9524,791.3553,805.8608,1083.0769,-0.697998046875,0.079833984375,0.74072265625,1.532745361328125,-3.327178955078125,0.157012939453125,49.0,39.0,10.0
701.2217194570136,70.78048970596319,,,,,,,30.466190915635508,30.541686867445048,0.1009388154160022,0.043447300718561316,719.2307692307692,74.13,0.10306844919786094,100.0,10.588235294117649,47.647058823529406,15.454545454545455,273.4375,,,0.015883349884823438,0.00912715131701798,0.00014937152812412609,1.7402308051153073,0.6312969089826229,0.3627661957982599,-4.696501646531692,2021-09-23 20:53:55,2021-09-23 20:53:55.019,0.31748173,-0.29954326,-0.16666496,0.4690915,0.40595716,-0.11535912,-0.31376620000000005,0.5441048,0.87443525,0.070123054,0.002540422,0.9243891,0.5253104999999999,0.67370456,0.64105254,0.6765908,0.10370239,0.50473934,0.1507634,0.5266006,785.7143,800.6227,797.3993,776.04395,707.5458,-0.69500732421875,0.08587646484375,0.73779296875,1.951446533203125,-3.342132568359375,0.538330078125,48.0,38.0,10.0
702.5034137460173,70.8378305428873,,,,,,,30.15060347369718,30.236520315547754,0.10083627944973654,0.04291879994279688,723.0769230769231,68.42769230769235,0.09463404255319156,107.69230769230774,10.059171597633137,46.745562130177525,15.363636363636365,273.4375,,,0.018560702513676364,0.01022275847601144,0.0001757062294194627,1.8156256510638111,0.6409266666145705,0.3530059548558586,-4.583138821035458,2021-09-23 20:53:56,2021-09-23 20:53:56.005,0.060196582,-0.4339825,-0.14265357,0.19143753,0.122580014,-0.15821342,-0.3608647,0.40302622,0.7503069,0.34271565,-0.032298066,0.81771755,0.64231324,0.6211914000000001,0.6058481,0.68377995,0.27150223,0.5148289,0.32791555,0.39010853,763.5531,791.75824,783.69965,796.1905,884.83514,-0.69976806640625,0.0858154296875,0.74151611328125,2.086029052734375,-3.491668701171875,-0.142059326171875,48.0,38.0,10.0
703.0040964952208,71.11850635132528,,,,,,,29.67372114655614,29.748256057834052,0.1011637154120179,0.0422098836898568,723.0769230769231,68.42769230769235,0.09463404255319156,107.69230769230774,9.467455621301776,46.153846153846146,15.363636363636365,273.4375,,,0.02034035328954961,0.01092833138523983,0.00019303619682568149,1.8612496796191569,0.6465111483428343,0.3473532623925671,-4.5163966521954855,2021-09-23 20:53:57,2021-09-23 20:53:57.024,0.5114149,-0.53133094,-0.020489646,0.6501089,0.29462495,-0.26992324,-0.31859879999999996,0.44860038,0.6612969,0.38647965,0.08153337,0.8478962,0.623179,0.68630135,0.540963,0.6306419,0.23016897,0.5145037,0.42557117,0.3971945,780.07324,793.7729,792.1612,778.46155,859.0476,-0.69537353515625,0.0826416015625,0.74029541015625,1.74957275390625,-3.78326416015625,0.216827392578125,42.0,44.0,-2.0
704.4606281292673,71.00685638526002,,,,,,,30.12138493454033,30.210177516826505,0.10079606091517493,0.042758081476503916,723.0769230769231,68.42769230769235,0.09463404255319156,107.69230769230774,10.059171597633137,46.153846153846146,15.363636363636365,273.4375,,,0.02432376857544263,0.012577227447483177,0.00023140227472365484,1.9339531448411589,0.6550551456565187,0.3387130383194057,-4.375867445681881,2021-09-23 20:53:58,2021-09-23 20:53:58.001,0.7230751999999999,-0.38196959999999996,0.23618391,1.0027255,0.45845664,0.06221269,0.07903710000000001,0.5750274999999999,0.7188230999999999,0.52480656,0.47881934,0.8193441999999999,0.63354427,0.65876436,0.63366634,0.6560165,0.3520182,0.46461779999999997,0.37298048,0.4093305,796.5934,806.26373,799.0110000000003,805.8608,788.1319,-0.692138671875,0.08355712890625,0.73504638671875,1.936492919921875,-3.521575927734375,-0.299072265625,37.0,48.0,-11.0
704.3695949021393,71.06213140634847,,,,,,,30.487492181010552,30.57832548557845,0.10088756232616967,0.043283373390423374,723.0769230769231,68.42769230769235,0.09463404255319156,107.69230769230774,10.650887573964498,46.745562130177525,15.363636363636365,273.4375,,,0.027837998742502677,0.014029652633565584,0.00026509226736440137,1.9842258015641083,0.6607212427962036,0.33298692229250115,-4.266582144007802,2021-09-23 20:53:59,2021-09-23 20:53:59.027,0.47712988,-0.22053188,-0.038672473,0.372211,0.54806995,0.08050951,0.10051571599999999,0.4619311,0.95160186,0.4466890000000001,0.46488562,0.9380809000000001,0.55156773,0.6716113,0.37954688,0.50758636,0.4447318,0.60337424,0.4067574,0.3992733,797.3993,811.5018299999997,803.8461,789.7436,659.19415,-0.698974609375,0.08026123046875,0.73974609375,1.876678466796875,-3.372039794921875,-0.261688232421875,34.0,53.0,-19.0
704.4151115157033,71.04195103339354,,,,,,,30.510588769308814,30.60149135708292,0.10085239494725097,0.04331336490447885,723.0769230769231,68.42769230769235,0.09463404255319156,107.69230769230774,10.650887573964498,47.33727810650888,15.363636363636365,273.4375,,,0.03261298132416585,0.0160462187904567,0.000310499971595856,2.032440274562505,0.6659828683195091,0.32767647672346284,-4.1322820465412935,2021-09-23 20:54:00,2021-09-23 20:54:00.053,0.47646713,-0.24296120000000002,0.27964285,0.2824724,0.72453195,-0.07997144,0.014570237,0.5084244000000001,0.94924045,0.37680563,0.23518871,0.9565065,0.49645168,0.54425484,0.17399111,0.48260483,0.2910164,0.30939179999999994,0.2711772,0.32434450000000004,821.1722,803.0403,792.1612,824.3956,786.9231,-0.6961669921875,0.08404541015625,0.74395751953125,1.577606201171875,-3.790740966796875,-0.10467529296875,29.0,64.0,-35.0
704.733727810651,70.9344702536123,,,,,,,30.458596816560878,30.544683049515353,0.10065428608615012,0.04322000723760528,723.0769230769231,68.42769230769235,0.09463404255319156,107.69230769230774,10.650887573964498,47.33727810650888,15.363636363636365,273.4375,,,0.037006462733697766,0.017995728024768568,0.00035169406577392206,2.0564026463816085,0.66854318989897,0.3251032530401188,-4.01762088121096,2021-09-23 20:54:01,2021-09-23 20:54:01.008,0.92115086,-0.030558457999999997,0.6125831,0.6777734999999999,0.35870138,-0.14500594,-0.06323812,0.50056165,0.9391533000000001,0.35704964,-0.10302165,1.0461628,0.60940707,0.28503272,0.049453627,0.69780284,0.33231738,-0.06291781,-0.028189195,0.38432652,807.0696,797.3993,802.6374,819.5604,888.0586,-0.69366455078125,0.08026123046875,0.7398681640625,1.77947998046875,-2.848663330078125,0.097198486328125,22.0,66.0,-44.0
706.0897435897435,70.37970909478855,,,,,,,30.59601173049925,30.674116140797988,0.0996753029395099,0.04333161897374383,726.9230769230769,62.72538461538471,0.08628888888888903,100.0,10.714285714285714,48.214285714285715,14.0,273.4375,,,0.04238631402236767,0.020520356147812672,0.0004014340494475427,2.065573994771322,0.6695242977948205,0.3241347438966683,-3.8863379026989615,2021-09-23 20:54:02,2021-09-23 20:54:02.000,0.73892814,0.08235241,0.31646678,0.58688366,0.35264227,-0.12114204,-0.087313525,0.32810825,1.2206337,0.61647475,0.18005401,1.2352139,0.6861406,0.36056125,0.08400838,0.6945786,0.3738626,0.038526345,-0.37783062,0.46393445,797.8022,803.8461,805.05493,811.0989,891.28204,-0.69244384765625,0.07940673828125,0.74249267578125,2.093505859375,-3.39447021484375,-0.216827392578125,18.0,66.0,-48.0
708.2875457875458,69.29981215498627,,,,,,,30.6365171065548,30.703328001600966,0.09784135351120954,0.04325434957703515,730.7692307692308,57.02307692307708,0.07803157894736862,100.0,10.714285714285714,48.214285714285715,14.0,203.125,,,0.04766502180525694,0.023190503358688087,0.00044908630010885694,2.055368142209804,0.6684703952041847,0.3252314665563937,-3.764012422099119,2021-09-23 20:54:03,2021-09-23 20:54:03.000,0.5217301,-0.58374786,0.40798348,0.48770276,0.39881828,-0.46214652,-0.064253844,0.10439865,1.1772835,0.66595614,0.13517427,1.0880438000000001,0.7396481,0.7293123,0.014766777,0.7291483,0.3503172,0.407683,-0.30364009999999997,0.4371564000000001,769.59705,804.2491,805.05493,761.53845,581.02563,-0.69586181640625,0.0816650390625,0.7410888671875,1.71966552734375,-3.686065673828125,-0.171966552734375,14.000000000000002,65.0,-51.0
709.1575091575091,68.25896767149192,,,,,,,30.99868384119909,31.07818011948513,0.09625360627230008,0.043711987028137146,730.7692307692308,57.02307692307708,0.07803157894736862,94.23076923076927,11.309523809523812,48.80952380952381,14.0,203.125,,,0.04672188863369523,0.02300357679178069,0.00043841638143199483,2.0310706050890843,0.6658965757093456,0.3278549618318852,-3.7721055624577136,2021-09-23 20:54:04,2021-09-23 20:54:04.000,0.30186945,-0.7176085999999999,0.30322185,0.3776496,0.18645744,0.0042503304,-0.24269000000000002,0.12410789,1.0395565999999998,0.52580196,0.106252156,0.84089196,0.67628866,0.7961736999999999,0.006196163,0.6638289,0.14611112,0.6213043,-0.26382490000000003,0.24166496,778.8644400000003,795.38464,796.1905,758.71796,650.32965,-0.69732666015625,0.0823974609375,0.74359130859375,2.01873779296875,-3.596343994140625,-0.127105712890625,16.0,64.0,-48.0
710.4395604395604,66.42977874852764,,,,,,,31.565020105770827,31.64902904528584,0.09350517967696853,0.044430268052979824,730.7692307692308,57.02307692307708,0.07803157894736862,92.30769230769238,12.5,49.404761904761905,14.0,195.3125,,,0.04584730378302842,0.0231028668410726,0.00042752368473640095,1.9844854795908036,0.6608363716865168,0.3330013640728577,-3.767798563480723,2021-09-23 20:54:05,2021-09-23 20:54:05.001,0.014430743000000001,-0.46758735,-0.500268,0.039571762,0.12033171,-0.33453134,-0.18067655,0.21951583,1.2478690000000001,0.41876343,0.37400059999999996,1.0799756,0.760108,0.7683654000000001,0.15758404,0.678477,0.23159568,0.42519903,-0.35395184,0.15207046,802.2344400000003,799.81683,796.5934,810.293,782.8938,-0.69281005859375,0.08624267578125,0.73944091796875,1.398162841796875,-2.878570556640625,0.321502685546875,19.0,67.0,-48.0
712.0221096269,64.92942415122744,,,,,,,31.456640173763017,31.543054025318252,0.09119017973367496,0.04417930250824137,730.7692307692308,57.02307692307708,0.07803157894736862,92.30769230769238,12.574850299401195,49.101796407185624,13.916666666666664,195.3125,,,0.045326766804658684,0.023392997140036592,0.0004201405397329292,1.9376211835243176,0.6555804081978049,0.3383429195408449,-3.755318568927745,2021-09-23 20:54:06,2021-09-23 20:54:06.013,-0.16394515,-0.13270283,-0.35331795,-0.0014627079999999998,0.34085,-0.031348534,-0.12289037,0.2699103,1.3509673,0.63159275,0.34749866,1.1970610000000002,0.7024094,0.50267154,-0.014311094,0.6581675,0.23131496,0.22061892,-0.52383244,0.30056307,813.1135,793.36993,796.99634,821.1722,938.0219999999999,-0.69775390625,0.08209228515625,0.73919677734375,1.712188720703125,-2.878570556640625,0.142059326171875,24.0,71.0,-47.0
713.1736526946107,64.35902738605614,,,,,,,31.90668650323759,31.98378040891673,0.09024313663703924,0.04473901466029117,730.7692307692308,57.02307692307708,0.07803157894736862,88.46153846153845,13.17365269461078,49.70059880239521,13.916666666666664,195.3125,,,0.04490207311478255,0.023824664757261967,0.0004134525295932277,1.884688560039276,0.6494351961419959,0.34458488787583136,-3.737033900589685,2021-09-23 20:54:07,2021-09-23 20:54:07.001,-0.15776905,-0.41060483,-0.531496,-0.018380867,0.2944315,-0.036615837000000005,-0.3849302,0.21715003,1.4824764,0.5743446,0.17035888,1.4181165,0.7128378000000001,0.27504316,-0.17284392,0.63733315,0.3016709,-0.17535336,-0.45127365,0.39183778,756.30035,796.1905,794.57874,772.8205,781.685,-0.6939697265625,0.08197021484375,0.74163818359375,1.71966552734375,-2.953338623046875,0.321502685546875,26.0,77.0,-51.0
716.1676646706587,63.548244362972866,,,,,,,31.92343981838689,31.978680375206434,0.08873375258040526,0.044575371652764297,730.7692307692308,57.02307692307708,0.07803157894736862,84.61538461538464,13.17365269461078,49.70059880239521,13.916666666666664,195.3125,,,0.044466001797140886,0.024538306854825484,0.0004057275889824377,1.812105540134144,0.6406278429647028,0.3535267834991992,-3.707519837400543,2021-09-23 20:54:08,2021-09-23 20:54:08.005,0.19608013,-0.29337087,-0.28000844,0.27816024,0.37080592,0.10120601,-0.16133437,0.3342949,1.4741568999999999,0.5751866,0.29160368,1.4181165,0.54657197,0.17357264,-0.17803317,0.70346254,0.27598837,-0.16800345,-0.41097113,0.35949802,841.3186599999997,809.4872,800.2198,834.4689,816.337,-0.69403076171875,0.08148193359375,0.74237060546875,1.98883056640625,-3.529052734375,-0.299072265625,18.0,84.0,-66.0
718.7210379981465,61.813984270286035,,,,,,,32.01443102968665,32.072504202685316,0.08600553066104273,0.044543611967803855,730.7692307692308,57.02307692307708,0.07803157894736862,82.69230769230774,13.253012048192772,50.0,13.833333333333336,195.3125,,,0.044224992013849114,0.02525511007381146,0.00040066508435674975,1.7511304399226773,0.6328635732487825,0.361402873721233,-3.6787267645758184,2021-09-23 20:54:09,2021-09-23 20:54:09.003,0.18634608,-0.027566517000000002,0.22910877,0.32663414,0.38387057,0.14279999,-0.09366044400000001,0.30656502,1.2089313,0.48376766,0.37523732,1.1720697,0.52893054,0.09626429,-0.15275003,0.5895781,0.2113904,-0.18846832,-0.35359517,0.18691075,834.4689,803.4432400000003,800.2198,828.8278,912.2344400000001,-0.69873046875,0.08331298828125,0.746337890625,1.7645263671875,-3.24493408203125,-0.2691650390625,4.0,97.0,-93.0
720.6526806526808,59.7464579812815,,,,,,,32.74055594310676,32.823001070852214,0.08290603724275379,0.045431810388125236,730.7692307692308,57.02307692307708,0.07803157894736862,76.9230769230769,13.93939393939394,50.90909090909091,12.692307692307693,195.3125,,,0.04415912411685868,0.026138424133776074,0.0003973235483730412,1.6894332990716243,0.6246439521441844,0.36973578802278734,-3.644348858227793,2021-09-23 20:54:10,2021-09-23 20:54:10.000,0.16154279,-0.03273962,-0.0054056040000000005,0.03169379,0.22989522,-0.14519535,-0.18279083,0.3466377,1.2586303,0.38537437,0.15599956,1.1348878999999998,0.56960905,0.08750843,-0.1972185,0.58202,0.09039431,-0.296896,-0.450817,0.18116453,814.7253,804.65204,801.02563,819.5604,785.3113400000003,-0.69586181640625,0.08380126953125,0.73858642578125,1.83929443359375,-3.46923828125,0.007476806640625,0.0,100.0,-100.0
721.7249417249417,58.44691924420015,,,,,,,32.735045456499854,32.81588560904341,0.08098226327679693,0.04535667754291852,730.7692307692308,57.02307692307691,0.07803157894736841,69.23076923076928,13.93939393939394,50.90909090909091,11.785714285714285,195.3125,,,0.044395405107614916,0.02725656539389791,0.0003971722633545141,1.6287967491881417,0.6161822806483553,0.3783052004220205,-3.6024608550061483,2021-09-23 20:54:11,2021-09-23 20:54:11.011,0.33612588,-0.14349228,-0.20975214,0.23028322,0.32856599999999997,-0.44212383,-0.37718242,0.39883435,1.2812327,0.22024281,0.33152273,1.1900208,0.50113267,0.041105058,-0.22038923,0.60984546,0.07633153,-0.33976918,-0.50127935,0.12615894,770.0,802.2344400000003,801.8315,783.2967,649.92676,-0.696044921875,0.07940673828125,0.739990234375,1.74957275390625,-3.043060302734375,0.082244873046875,0.0,100.0,-100.0
724.1025641025641,55.97206004990219,,,,,,,32.7570818409925,32.83800255879491,0.07729852485645132,0.045238179596271515,738.4615384615386,45.61846153846162,0.06177500000000013,76.923076923077,13.93939393939394,50.90909090909091,11.785714285714285,171.875,,,0.04529495884914163,0.0290938965129861,0.0004031716347029029,1.5568543329671969,0.6056121309703377,0.38899729932735977,-3.5372268686253663,2021-09-23 20:54:12,2021-09-23 20:54:12.001,0.11586255599999999,-0.29232073,-0.20875005,0.2879012,0.26063138,-0.31811067,-0.38328713,0.31925046,1.3982826000000002,0.24964713,0.46082646,1.3732088,0.63761383,-0.0036094803,-0.07069069,0.5649758,0.23870549,-0.42835280000000003,-0.50066197,0.20464137,810.293,798.20514,796.99634,813.1135,754.6886599999997,-0.69512939453125,0.079345703125,0.74053955078125,1.547698974609375,-2.729034423828125,0.142059326171875,3.0,99.0,-96.0
725.9380863039398,54.84581057938085,,,,,,,32.741198209412595,32.82977787269412,0.07555163672238806,0.045101915476169575,738.4615384615386,45.61846153846162,0.06177500000000013,76.923076923077,14.02439024390244,50.0,11.714285714285715,171.875,,,0.04662037788457177,0.031003454017977126,0.0004142809858626657,1.5037156136712797,0.5974052441687727,0.3972860551139884,-3.4736566607689845,2021-09-23 20:54:13,2021-09-23 20:54:13.002,0.015159603999999997,-0.21738662,0.22052938,0.3383069,0.27806318,-0.46677673,-0.15114518,0.24567726,1.3186026000000002,0.29250354,0.38743648,1.2788663,0.6060687,0.047535013,-0.091993615,0.500725,0.37193236,-0.45865762,-0.37435406,0.21782394,773.22345,799.41394,792.1612,759.92676,940.8424699999999,-0.6966552734375,0.0809326171875,0.739990234375,2.310333251953125,-3.461761474609375,-0.2392578125,0.0,100.0,-100.0
727.2770174610664,54.474709174539136,,,,,,,32.82540917892568,32.918373287508864,0.07490228326575071,0.0451346713711917,738.4615384615386,45.61846153846162,0.06177500000000013,76.923076923077,14.11042944785276,50.306748466257666,11.642857142857142,171.875,,,0.049121556701304914,0.03403819171414231,0.00043827136364194783,1.4431306196825875,0.5875923476550093,0.4071650477378469,-3.380272099069256,2021-09-23 20:54:14,2021-09-23 20:54:14.004,0.2877921,-0.21905881,0.42782617,0.3804344,0.09931128,-0.61207783,-0.23211867,0.09096847,1.2537436000000002,0.13778791,-0.09984459,1.0793116000000005,0.5268071,-0.010226645999999999,-0.048535172,0.45339745,0.29638088,-0.45358709,-0.45557526,0.23256905,834.4689,810.293,794.57874,830.0366,832.4542,-0.69537353515625,0.08380126953125,0.73956298828125,1.9439697265625,-3.03558349609375,0.34393310546875,0.0,100.0,-100.0
727.2045028142591,54.31529092893226,,,,,,,33.432410445171215,33.53540473836548,0.07469053164375876,0.04597387710855586,738.4615384615386,45.61846153846162,0.06177500000000013,76.923076923077,15.24390243902439,51.21951219512196,11.714285714285715,171.875,,,0.05183765622685317,0.03705437915204187,0.00046667346401580936,1.3989616723613807,0.5801074892205724,0.4146700375581974,-3.2953687384879844,2021-09-23 20:54:15,2021-09-23 20:54:15.009,0.46864972,0.06449261,0.2276255,1.1824815,-0.010784296,-0.34878168,-0.24184723,0.5531005,1.059626,0.27321327,0.23535407,1.3225421,0.51025397,0.11060376,-0.104751706,0.60293436,0.14164029999999994,-0.14134966,-0.41723228,0.12311566,814.3223,796.99634,799.81683,809.0842,737.3626,-0.6939697265625,0.08123779296875,0.74114990234375,2.220611572265625,-4.314117431640625,-0.418701171875,1.0,100.0,-99.0
727.7961302501179,54.01766981039972,,,,,,,33.513647737944716,33.61591285600013,0.07422088077307548,0.046048125766246166,738.4615384615386,45.61846153846162,0.06177500000000013,73.0769230769231,15.337423312883436,51.533742331288344,11.642857142857142,171.875,,,0.054676286006687766,0.04025456752139222,0.0005000463191079227,1.3582629096097358,0.5729411133525943,0.4218190081603681,-3.212531802763442,2021-09-23 20:54:16,2021-09-23 20:54:16.000,0.6915214,0.13260439,0.85386384,1.3554095,0.2400243,-0.13004765,0.14857975,0.77113664,1.0105277,0.31113714,0.42267513,1.2992287,0.36644325,0.26250228,0.02764352,0.5622832,0.14572005,0.16307065,-0.15555711,0.06345507,814.7253,798.60803,801.4286,826.8132,912.6374,-0.69952392578125,0.07818603515625,0.7437744140625,1.816864013671875,-3.596343994140625,0.082244873046875,2.0,95.0,-93.0
728.2363977485927,53.33547191178111,,,,,,,33.39438510617609,33.488731829727904,0.07323922846574607,0.04585651748445668,738.4615384615386,45.61846153846162,0.06177500000000013,69.23076923076928,15.24390243902439,51.21951219512196,11.714285714285715,171.875,,,0.05721942773380724,0.04359719323270117,0.0005387404779819844,1.3124566856493958,0.5645426834686469,0.4301419541242343,-3.1327625060960957,2021-09-23 20:54:17,2021-09-23 20:54:17.002,0.42945576,0.27587870000000003,0.9764179000000001,0.62246525,0.08406945,-0.14294049,0.19352654,0.008152481,1.2408358999999998,0.055390592999999995,0.30620682,1.0369914,0.5836264,-0.09561316,-0.057402957000000004,0.6809804,0.22978406,-0.40275744,-0.4702875,0.33609274,807.8755,803.0403,779.2674,781.685,846.5567599999997,-0.6993408203125,0.08172607421875,0.742919921875,2.03369140625,-3.06549072265625,0.299072265625,3.0,86.0,-83.0
729.6838131193961,51.57237832136963,,,,,,,33.47002435760902,33.569719225637634,0.07067770641765765,0.04586921589301094,738.4615384615386,45.61846153846162,0.06177500000000013,65.38461538461547,15.337423312883436,50.920245398773005,11.642857142857142,171.875,,,0.059491067991280025,0.04647548619339248,0.0005772128955247617,1.2800526226606317,0.5583721096185769,0.4362102774009258,-3.0688302840330617,2021-09-23 20:54:18,2021-09-23 20:54:18.004,1.1105045,0.7081791000000001,0.40995395,0.6049433000000001,0.9087202,0.4555746,-0.06039689,-0.16044758,1.418535,0.5217417000000001,-0.08959299999999999,1.0344507,0.6553140000000001,0.44227567,-0.15987009,0.6960257,0.222662,0.26644254,-0.7576108,0.31718270000000004,813.5165,820.3663,809.4872,817.5458,590.293,-0.695556640625,0.08282470703125,0.74066162109375,2.0635986328125,-3.46923828125,-0.441131591796875,11.0,71.0,-60.0
729.7373358348967,51.03584085485068,,,,,,,33.30185709087111,33.4044489305492,0.0699372751655365,0.04563540256957013,738.4615384615386,45.61846153846162,0.06177500000000013,69.23076923076928,15.24390243902439,50.609756097560975,11.714285714285715,171.875,,,0.05827405984183096,0.04657738564376706,0.0005870494570726207,1.2511234590863975,0.5526829634045508,0.4417493408749078,-3.066640142254636,2021-09-23 20:54:19,2021-09-23 20:54:19.000,1.4205134,0.5787694999999999,0.35663128,0.5807812,1.2296125,0.4156434,0.36142802,-0.14862457,1.3677698,0.5773866999999999,0.13727345,1.0344507,0.7374469,0.9297458000000001,0.82863265,0.72083575,0.2330429,0.7348452,0.7268928000000001,0.30228224,770.80585,793.7729,794.9817,765.56775,601.1722,-0.69476318359375,0.0802001953125,0.73687744140625,1.936492919921875,-3.566436767578125,0.3289794921875,23.0,57.99999999999999,-34.99999999999999
729.9197734780557,51.21082043731482,,,,,,,33.382606580234714,33.48581391186225,0.07015951930346552,0.04573462426037199,738.4615384615386,45.61846153846162,0.06177500000000013,65.38461538461547,15.337423312883436,50.920245398773005,11.642857142857142,171.875,,,0.057159109176736236,0.04688679877013351,0.0006087963635291584,1.219087476135097,0.5461685602513014,0.4480142491356182,-3.060019119268297,2021-09-23 20:54:20,2021-09-23 20:54:20.039,1.1426781000000001,-0.028291065,0.65738744,0.5807812,1.1515471000000002,0.19308701,0.3813767,-0.14862457,0.8160341999999999,0.7210635999999999,0.44317734,1.0344507,0.7224345999999999,1.0950924,0.89220726,0.72083575,0.84648985,1.0487545,0.7893237,0.30228224,836.4835,793.36993,802.2344400000003,814.3223,842.5274699999999,-0.69549560546875,0.08172607421875,0.74383544921875,1.92901611328125,-2.7813720703125,1.084136962890625,32.0,50.0,-18.0
729.4950448324681,51.9561380705515,,,,,,,32.903207786188304,33.00028405758993,0.07122205755692756,0.04510408675050655,738.4615384615386,45.61846153846162,0.06177500000000013,65.38461538461547,14.723926380368097,50.306748466257666,11.642857142857142,171.875,,,0.0566102448234138,0.0473248862169206,0.0006341331139712679,1.1962045627311682,0.5413660054055459,0.452569754599081,-3.050718986180806,2021-09-23 20:54:21,2021-09-23 20:54:21.001,1.20495,-0.17356743,0.8574335,0.5807812,1.2025214,0.36246789,0.34619898,-0.14862457,0.8160341999999999,0.8498344000000001,0.41682044,1.0344507,0.71455956,1.2415787,1.0376308,0.72083575,0.89185,1.3603015,0.7661518,0.30228224,783.2967,795.78754,792.1612,785.3113400000003,987.5824,-0.69244384765625,0.08392333984375,0.7418212890625,1.562652587890625,-3.00567626953125,-0.037384033203125,43.0,51.0,-8.0
728.0487804878047,53.72631376949165,,,,,,,32.80212242353287,32.88958417152232,0.07379493683581767,0.045054841519760386,738.4615384615386,45.61846153846162,0.06177500000000013,69.23076923076928,14.634146341463413,50.0,11.714285714285715,171.875,,,0.056336856408786,0.0479359671010961,0.0006655212509895129,1.175252317116552,0.5368567279878836,0.4568012503945079,-3.037889177396528,2021-09-23 20:54:22,2021-09-23 20:54:22.005,0.51636034,-0.09450414,0.33224264,0.7707848,0.3762621,0.5414168,0.07751961,0.65736336,0.8556125,0.84714323,0.21257876,0.94642764,0.9383360000000001,1.3157854,0.9995116,1.0478591,0.94536895,1.4844766,1.0343014000000001,0.8954948,854.21246,818.3516,824.7985,859.45056,808.2784,-0.6905517578125,0.0831298828125,0.745361328125,2.093505859375,-3.768310546875,-0.37384033203125,51.0,55.00000000000001,-4.000000000000006
726.7107126002832,54.98266672085587,,,,,,,32.70278029010084,32.777063310203964,0.07565963424994712,0.045001098405561185,738.4615384615386,45.61846153846162,0.06177500000000013,73.0769230769231,14.723926380368097,49.69325153374234,12.538461538461537,171.875,,,0.05629915025069573,0.04886167542415296,0.0007151930920198022,1.1522148956616889,0.5317460073244961,0.461498987147816,-3.0187619234384977,2021-09-23 20:54:23,2021-09-23 20:54:23.001,0.35284990000000005,-0.09450414,0.5873453000000001,0.37961844,0.21999168,0.5414168,0.54622334,0.36169553,0.69979006,0.84714323,0.6846419,0.6701469,0.9157975,1.3157854,0.9416851999999999,1.0059563,0.95333415,1.4844766,0.88049,0.89606273,791.75824,778.46155,794.17584,799.41394,790.14655,-0.6923828125,0.08416748046875,0.74188232421875,1.891632080078125,-2.9608154296875,-0.082244873046875,55.00000000000001,65.0,-9.999999999999991
725.034965034965,56.71565159627203,,,,,,,32.51386018385727,32.59049492826255,0.07822471236754341,0.0448445409557445,738.4615384615386,45.61846153846162,0.06177500000000013,76.923076923077,14.545454545454545,49.09090909090909,12.692307692307693,171.875,,,0.05584449476934048,0.04898701122370031,0.0007426308530808388,1.1399857508008668,0.5289599937789308,0.4640057942893795,-3.016200093077986,2021-09-23 20:54:24,2021-09-23 20:54:24.001,0.74333024,-0.09450414,0.4066824,0.929808,0.86110324,0.5414168,0.5265536999999999,0.8473146999999999,0.8816215000000001,0.84714323,0.62156576,0.98063034,0.84648263,1.3157854,0.8376844000000001,0.9532577,0.6896404,1.4844766,0.81311685,0.80072474,801.02563,816.7399,818.7546,810.293,710.3663,-0.6993408203125,0.08270263671875,0.74554443359375,1.502838134765625,-3.349609375,-0.620574951171875,62.0,75.0,-13.0
723.2634032634033,56.62841126920766,,,,,,,32.76258862120136,32.85319932482254,0.0782956956119959,0.0452982806448865,730.7692307692308,57.02307692307691,0.07803157894736841,69.23076923076928,15.151515151515152,49.6969696969697,12.692307692307693,171.875,,,0.05480683737637093,0.04881640777063546,0.0007868317021976067,1.1227134457308203,0.5249190406738865,0.4675449845817026,-3.019688797825826,2021-09-23 20:54:25,2021-09-23 20:54:25.000,1.0909944999999999,-0.39229208,0.38377887,1.1048065,0.9250563,-0.14446893,0.30343359999999997,0.7441606,0.77695554,0.38867378,0.37075645,0.87427443,0.8902553,1.2991953,0.95285404,0.84151137,0.6761275999999999,1.3468282,0.7188529,0.7429955,821.1722,788.1319,799.81683,821.9780000000003,820.3663,-0.6929931640625,0.08184814453125,0.7406005859375,1.8841552734375,-3.117828369140625,0.07476806640625,67.0,77.0,-10.0
