HRV_MeanNN,HRV_SDNN,HRV_SDANN1,HRV_SDNNI1,HRV_SDANN2,HRV_SDNNI2,HRV_SDANN5,HRV_SDNNI5,HRV_RMSSD,HRV_SDSD,HRV_CVNN,HRV_CVSD,HRV_MedianNN,HRV_MadNN,HRV_MCVNN,HRV_IQRNN,HRV_pNN50,HRV_pNN20,HRV_HTI,HRV_TINN,HRV_ULF,HRV_VLF,HRV_LF,HRV_HF,HRV_VHF,HRV_LFHF,HRV_LFn,HRV_HFn,HRV_LnHF,Time,TimeStamp,Delta_TP9,Delta_AF7,Delta_AF8,Delta_TP10,Theta_TP9,Theta_AF7,Theta_AF8,Theta_TP10,Alpha_TP9,Alpha_AF7,Alpha_AF8,Alpha_TP10,Beta_TP9,Beta_AF7,Beta_AF8,Beta_TP10,Gamma_TP9,Gamma_AF7,Gamma_AF8,Gamma_TP10,RAW_TP9,RAW_AF7,RAW_AF8,RAW_TP10,AUX_RIGHT,Accelerometer_X,Accelerometer_Y,Accelerometer_Z,Gyro_X,Gyro_Y,Gyro_Z,Attention,Meditation,A_M
696.4854111405837,68.60281722259353,,,,,,,42.363903066108044,42.549303965319424,0.09849857028627157,0.06082525547337991,684.6153846153846,79.83230769230782,0.1166089887640451,117.30769230769226,12.06896551724138,60.3448275862069,19.33333333333333,70.3125,,,,0.013708454939616742,0.0008171203616239532,,,0.9437460930339772,-4.289742487628976,2021-09-24 19:16:00,2021-09-24 19:16:00.017,0.5751518,-0.02213778,0.16047971,0.5730301,0.353725,0.07191826400000001,0.022581612999999997,0.28503576,0.87008405,0.33267283,0.26092854,0.58893603,0.9447860999999999,0.283107,0.12614405,0.81527424,0.89989215,0.21786055,0.043342233,0.66272694,528.6447,800.2198,802.6374,689.81683,903.7729,-0.35845947265625,0.05047607421875,0.98651123046875,4.18701171875,-5.704803466796875,3.641204833984375,53.0,44.0,9.0
695.9894806048651,68.51678909790185,,,,,,,42.23528890213982,42.418052557973034,0.09844515040422136,0.060683803533114186,684.6153846153846,79.83230769230782,0.1166089887640451,115.38461538461536,11.965811965811966,60.68376068376068,19.5,70.3125,,,,0.013703028643487054,0.000816824409075608,,,0.9437443060808772,-4.290138401712511,2021-09-24 19:16:01,2021-09-24 19:16:01.002,0.79973114,0.058912992000000004,0.112795085,0.8290037,0.5587171999999999,0.10207811,-0.0061114947,0.38736415,0.7546433000000001,0.31955436,0.25067806,0.7359017,0.8065138000000001,0.2686595,0.23313852,0.8773318999999999,0.827319,-0.06504394,0.086882025,0.6720215,1460.6227,802.6374,802.2344400000003,1127.8022,960.58606,-0.16546630859375,-0.02044677734375,1.0111083984375,0.0897216796875,-9.390869140625,-3.940277099609375,33.0,53.0,-20.0
695.4751131221719,68.05028437999403,,,,,,,41.93566429455356,42.11444434642906,0.09784718834078517,0.06029786473062027,684.6153846153846,79.83230769230764,0.11660898876404485,115.38461538461536,11.764705882352938,60.504201680672274,17.0,179.6875,,,,0.013687722877384848,0.000815971568665092,,,0.9437404330530886,-4.29125598825873,2021-09-24 19:16:02,2021-09-24 19:16:02.045,0.7919914,-0.12999533,-0.37658292,0.812345,0.33206642,0.0012885086,-0.55166125,0.2746628,0.67108965,0.30841714,0.12370904,0.8373921999999999,0.89954615,0.057926822,0.17907883,0.8522833000000001,1.0939324,-0.19368239999999998,0.057155192,0.98071676,1329.2675,803.0403,807.0696,1125.7876,1053.663,-0.17974853515625,0.05670166015625,1.01361083984375,2.572021484375,-4.568328857421875,0.366363525390625,14.000000000000002,55.00000000000001,-41.00000000000001
695.5128205128206,67.7650145274621,,,,,,,41.85424272556577,42.029963832681865,0.09743172595653536,0.06017752871141254,684.6153846153846,79.83230769230764,0.11660898876404485,115.38461538461536,11.666666666666664,60.83333333333333,17.142857142857142,148.4375,,,,0.013683273647550674,0.0008157206136259756,,,0.9437395036557676,-4.2915810936942815,2021-09-24 19:16:03,2021-09-24 19:16:03.030,0.32351312,-0.09188909,-0.26918373,0.42859337,0.28058112,-0.014107465,-0.23595607,0.18746956,0.8551367,0.23076196,0.059258955999999995,0.80829525,0.7750090999999999,0.010402336,0.19141653,0.76223856,1.0962825,-0.14644562,0.029941075,0.9528361999999999,535.09155,806.26373,802.6374,620.1098599999998,472.23444000000006,-0.131103515625,0.02386474609375,1.029296875,3.820648193359375,0.082244873046875,6.3702392578125,1.0,62.0,-61.0
695.6770502225047,67.50624605467227,,,,,,,41.70313985501881,41.87557230175792,0.09703675869871103,0.05994611988663491,684.6153846153846,79.83230769230764,0.11660898876404485,115.38461538461536,11.570247933884296,60.33057851239669,17.285714285714285,148.4375,,,,0.013685455568126326,0.0008158438058213361,,,0.9437399515186176,-4.291421647447211,2021-09-24 19:16:04,2021-09-24 19:16:04.002,0.09731249,-0.27716430000000003,-0.5611539000000001,0.11861503,0.3372341,0.057762694,-0.03502993,0.27103522,0.8769239,0.15679677,0.05654258,0.61844707,0.797377,0.022225846,0.19722657,0.80033606,0.9182448000000001,-0.09808953,-0.113555826,0.75212777,1107.2528,811.9048,811.0989,968.24176,667.25275,-0.183349609375,0.07464599609375,1.0001220703125,0.179443359375,-4.78515625,6.811370849609375,0.0,64.0,-64.0
696.6854283927455,67.41403093852895,,,,,,,41.576275348329844,41.74081104190578,0.09676394566490824,0.059677256985618876,684.6153846153846,79.83230769230764,0.11660898876404485,115.38461538461536,11.38211382113821,60.162601626016276,17.571428571428573,148.4375,,,,0.013703493872535137,0.0008168497746584629,,,0.9437444598760348,-4.2901044514696185,2021-09-24 19:16:05,2021-09-24 19:16:05.014,0.18773735,-0.18498884,-0.21307089999999998,0.19397488,0.21165237,-0.07966297,-0.025451584,0.45933628,1.0218375,0.18078019,0.11168443,0.65929604,0.9122732,0.1041941,0.22746122,0.86737674,1.074296,-0.14189677,-0.18627699,0.79944235,680.54944,809.4872,802.2344400000003,735.7509,617.28937,-0.17608642578125,0.0745849609375,1.0040283203125,-0.261688232421875,-2.474822998046875,-3.267364501953125,0.0,66.0,-66.0
697.1464019851117,67.3353752912151,,,,,,,41.406921180674345,41.56944613091382,0.09658713736380026,0.059394871812819924,684.6153846153846,79.83230769230772,0.11660898876404498,115.38461538461536,11.29032258064516,59.67741935483871,17.714285714285715,148.4375,,,,0.0195583767591508,0.001986387879008045,,,0.907801829708092,-3.934351605592618,2021-09-24 19:16:06,2021-09-24 19:16:06.002,0.12552278,0.0008501744,0.5132585999999999,0.15700588,0.375864,-0.0071330735999999995,0.25788012,0.33581802,0.68365973,0.26123208,0.56704086,0.9768363999999999,0.8199591,0.12922299,0.12277339,0.9386116,1.0733631000000001,-0.11914269599999999,-0.009974186999999999,0.83857906,888.46155,816.337,797.8022,870.7326,798.20514,-0.2835693359375,0.009033203125,1.00762939453125,1.27105712890625,2.579498291015625,-4.47113037109375,6.0,69.0,-63.0
697.9242979242981,67.25321011436242,,,,,,,41.73741528077088,41.903733557368795,0.09636175486994893,0.05980220978822837,688.4615384615386,79.83230769230772,0.11595754189944138,113.46153846153842,11.904761904761903,60.317460317460316,18.0,148.4375,,,,0.01955242980813851,0.001985795426424782,,,0.9078013436669752,-3.9346557134124303,2021-09-24 19:16:07,2021-09-24 19:16:07.002,0.079356335,0.49777904,0.75259274,0.07288288,0.12359581,0.20066029,0.5012984,0.043662723,0.27163875,0.32832238,0.56704086,0.8743354999999999,0.7354116999999999,0.39514947,0.193761,0.95012647,0.9878253,0.044237237,-0.024174862999999998,0.93348116,412.60074,799.41394,793.7729,608.8278,1014.9817,-0.35406494140625,0.06622314453125,0.95263671875,1.24114990234375,-4.882354736328125,3.760833740234375,6.0,69.0,-63.0
697.7589339794066,67.01171789704243,,,,,,,41.661735408389546,41.82787074558342,0.09603849500695924,0.05970792114518327,684.6153846153846,79.83230769230764,0.11660898876404485,111.53846153846143,11.811023622047243,60.62992125984253,18.142857142857142,148.4375,,,,0.01955448460297516,0.0019859876722848344,,,0.9078020367006616,-3.9345506274004296,2021-09-24 19:16:08,2021-09-24 19:16:08.012,1.4909321000000002,0.30188045,0.51982117,0.07288288,1.254032,0.040765422999999995,0.27104965,0.043662723,0.7595367,0.28474444,0.26341704,0.8743354999999999,1.0293354,0.1272864,0.15832047,0.95012647,0.7707553,-0.17775235,-0.03210676,0.93348116,271.5751,799.41394,804.65204,499.23077,600.7692,-0.34735107421875,0.05645751953125,0.96490478515625,1.42059326171875,-5.72723388671875,3.282318115234375,4.0,70.0,-66.0
697.8365384615382,66.75314515658522,,,,,,,41.58711285984315,41.750220735363975,0.09565728000392512,0.05959434705371945,688.4615384615386,74.13,0.10767486033519552,109.61538461538453,11.71875,60.9375,18.285714285714285,148.4375,,,,0.019555732755611423,0.0019861075828039817,,,0.9078023255393749,-3.934486799954765,2021-09-24 19:16:09,2021-09-24 19:16:09.000,1.4909321000000002,-0.18385722,0.1606543,0.07288288,1.254032,-0.18009818,-0.014922223,0.043662723,0.7595367,0.31148997,0.20915745,0.8743354999999999,1.0293354,0.09621809,0.075305656,0.95012647,0.7707553,-0.18675008,-0.14869754,0.93348116,1236.5934,813.91943,801.4286,1043.9927,835.6777,-0.328369140625,0.05157470703125,0.96917724609375,1.15142822265625,-3.401947021484375,0.710296630859375,8.0,75.0,-67.0
697.8106508875742,66.37407432618734,,,,,,,41.7607075997759,41.923517993445465,0.09511759994170828,0.05984532845215065,688.4615384615386,74.13,0.10767486033519552,107.69230769230762,12.307692307692307,61.53846153846154,16.25,148.4375,,,,0.019553733575470657,0.0019859149434478095,,,0.9078018872172608,-3.9345890350569057,2021-09-24 19:16:10,2021-09-24 19:16:10.001,0.22704454,-0.5531626999999999,-0.16821058,-0.06624325,0.11384297,-0.14767964,0.080013104,0.38454629999999995,0.7959098000000001,0.2426353,0.24234776,0.6531773,0.8159015000000001,0.16998497,0.0028362534999999997,0.77133405,0.94154876,-0.13873543,-0.099117,0.7510956,1274.8718,801.8315,819.9634,1069.3773,1031.9048,-0.34405517578125,0.04168701171875,0.95745849609375,0.8074951171875,-2.452392578125,-0.964508056640625,11.0,79.0,-68.0
697.4163241338814,66.27215708541993,,,,,,,41.621656769570926,41.78250068840469,0.09502524502523377,0.059679785702264274,684.6153846153846,79.83230769230764,0.11660898876404485,107.69230769230762,12.213740458015266,61.06870229007634,16.375,148.4375,,,,0.019557427865085544,0.001986267162712884,,,0.907802855538479,-3.934400122762317,2021-09-24 19:16:11,2021-09-24 19:16:11.007,0.31498715,0.37252086,0.7925371999999999,0.18684578,0.2003912,-0.16912934,0.66272014,0.46784738,0.8507511000000001,0.16616529,0.94428724,0.86946976,0.7624091,0.15120926,0.23781092,0.81752026,0.9483193999999999,-0.1451667,0.10082358,0.8696018,1285.348,814.3223,801.8315,1028.6813,895.3113400000003,-0.3214111328125,0.040283203125,0.95782470703125,0.0299072265625,-2.452392578125,-0.919647216796875,16.0,86.0,-70.0
696.4719491035283,66.41861202078871,,,,,,,42.21753479134832,42.37820258434329,0.09536437484134166,0.0606162744180711,684.6153846153846,79.83230769230764,0.11660898876404485,107.69230769230762,13.533834586466165,61.65413533834586,16.625,148.4375,,,,0.01955450504287025,0.001985907966187703,,,0.9078054833325336,-3.934549582121824,2021-09-24 19:16:12,2021-09-24 19:16:12.053,0.37923872,0.8148558000000001,1.1844665,0.47823206,0.36611479999999996,0.060442715999999994,1.0097690000000001,0.59459597,0.6370954000000001,0.38557833,0.9229588,0.7526465999999999,0.7634125,0.29647870000000004,0.41666448,0.88478726,0.831241,0.14737184,0.21630229,0.8810459,579.81683,777.25275,843.7362699999999,723.663,1060.1099,-0.3392333984375,0.0137939453125,0.9644775390625,2.9608154296875,-5.12908935546875,-2.9010009765625,23.0,87.0,-64.0
696.5556831228473,66.1755459869095,,,,,,,42.14306262547528,42.30096006675976,0.09500395674072552,0.060502072765434275,684.6153846153846,74.13,0.10827977528089887,107.69230769230762,13.432835820895527,61.94029850746269,16.75,148.4375,,,,0.020068720614411308,0.0021597990574158737,,,0.9028365770954492,-3.9085928643736105,2021-09-24 19:16:13,2021-09-24 19:16:13.020,0.37923872,0.9464669,1.2700646999999998,0.47823206,0.36611479999999996,0.16831155,1.0926363000000001,0.59459597,0.6370954000000001,0.37749526,0.909574,0.7526465999999999,0.7634125,0.42617542,0.4540268,0.88478726,0.831241,0.32166350000000005,0.24242043,0.8810459,1139.8901,793.7729,789.7436,955.34796,854.61536,-0.3529052734375,0.0089111328125,0.9638671875,2.3028564453125,-3.895416259765625,0.91217041015625,30.0,86.0,-56.0
697.3219373219374,66.52658799523304,,,,,,,42.73606326119146,42.88388380410797,0.09540297592060304,0.06128598710850711,684.6153846153846,79.83230769230764,0.11660898876404485,107.69230769230762,14.074074074074074,62.22222222222222,16.875,148.4375,,,,0.02008250780321254,0.0021612589431060513,,,0.9028375469067644,-3.9079061013585563,2021-09-24 19:16:14,2021-09-24 19:16:14.018,0.37923872,0.9464669,1.2700646999999998,0.47823206,0.36611479999999996,0.16831155,1.0926363000000001,0.59459597,0.6370954000000001,0.37749526,0.909574,0.7526465999999999,0.7634125,0.42617542,0.4540268,0.88478726,0.831241,0.32166350000000005,0.24242043,0.8810459,1292.6007,812.3077,799.41394,1070.989,936.4103,-0.35577392578125,0.009521484375,0.96063232421875,1.136474609375,-3.0206298828125,0.680389404296875,39.0,83.0,-44.0
698.4162895927601,67.49724320996907,,,,,,,42.762384415853305,42.89969556324929,0.09664328311890616,0.06122764467705592,688.4615384615386,74.13,0.10767486033519552,107.69230769230762,13.970588235294118,62.5,17.0,148.4375,,,,0.02011757369326852,0.00216500940570039,,,0.9028384906685,-3.906161532808232,2021-09-24 19:16:15,2021-09-24 19:16:15.000,0.75026155,0.9464669,1.1663308000000001,1.0303019,0.3252277,0.16831155,0.84651333,0.8875274,0.631921,0.37749526,0.57439333,0.8118585,0.9285055,0.42617542,0.65597904,1.0382608,0.9550438,0.32166350000000005,0.6173494,0.81505895,349.34067000000016,801.8315,803.0403,582.6374,570.14655,-0.3450927734375,0.01397705078125,0.9613037109375,2.392578125,-3.611297607421875,-1.173858642578125,49.0,81.0,-32.0
701.0590858416945,70.48396003792759,,,,,,,42.58116910689815,42.70829147336357,0.1005392576194976,0.06073834569275289,692.3076923076923,79.83230769230764,0.11531333333333328,113.46153846153842,13.768115942028984,62.31884057971014,17.25,148.4375,,,,0.020106800715008036,0.002163775877642098,,,0.9028414972266052,-3.9066971771122905,2021-09-24 19:16:16,2021-09-24 19:16:16.001,0.7027779000000001,0.6884474,1.254314,1.0001465,0.43805605,0.43789363,0.8435511,0.8901286,0.6294662,0.53465724,0.615974,0.825435,0.9247943000000001,1.0524191,0.66122943,1.0311124,0.90173477,1.1382333999999998,0.5523956999999999,0.8696912,334.4322200000001,807.8755,780.07324,566.1172,657.5824,-0.349365234375,0.00714111328125,0.96240234375,1.936492919921875,-3.282318115234375,0.530853271484375,57.99999999999999,79.0,-21.000000000000007
702.2689540675152,71.66208398649955,,,,,,,42.431661891572354,42.55944387854124,0.1020436452037862,0.060420814056793726,692.3076923076923,79.83230769230764,0.11531333333333328,115.38461538461536,13.66906474820144,61.870503597122315,17.375,148.4375,,,,0.02005003731220081,0.002157623553741561,,,0.9028432770670374,-3.9095242642736436,2021-09-24 19:16:17,2021-09-24 19:16:17.000,0.733483,0.6884474,1.3240583000000001,0.8777219999999999,0.52297467,0.43789363,0.7988907,0.7421097,0.55884486,0.53465724,0.5830525,0.7219776,0.9176728999999999,1.0524191,0.6888314999999999,1.0418867,0.88717145,1.1382333999999998,0.43086442,0.9094034,707.5458,828.8278,778.0586,755.8974599999997,624.5421,-0.3507080078125,0.00830078125,0.9605712890625,1.8841552734375,-3.06549072265625,-1.323394775390625,66.0,78.0,-12.0
703.0769230769231,72.04097803234723,,,,,,,42.52472380698268,42.664062598870046,0.10246528604163176,0.060483742832688724,692.3076923076923,79.83230769230772,0.11531333333333338,115.38461538461536,14.285714285714285,62.14285714285714,17.5,148.4375,,,,0.019981106456948845,0.0021501665226769167,,,0.902844878166006,-3.9129681290693785,2021-09-24 19:16:18,2021-09-24 19:16:18.004,0.733483,0.6884474,1.3240583000000001,0.8777219999999999,0.52297467,0.43789363,0.7988907,0.7421097,0.55884486,0.53465724,0.5830525,0.7219776,0.9176728999999999,1.0524191,0.6888314999999999,1.0418867,0.88717145,1.1382333999999998,0.43086442,0.9094034,298.1685,766.3736,751.4652,551.6117,529.85345,-0.35919189453125,0.0103759765625,0.9539794921875,2.400054931640625,-3.9776611328125,0.022430419921875,71.0,78.0,-7.0
703.8188761593018,72.32186039283438,,,,,,,42.3775646795056,42.51682190591786,0.10275635229832214,0.06021089532403207,692.3076923076923,79.83230769230782,0.1153133333333335,115.38461538461536,14.184397163120568,61.70212765957447,17.625,148.4375,,,,0.01992517396606021,0.002144120083127616,,,0.902846005026313,-3.9157713232995466,2021-09-24 19:16:19,2021-09-24 19:16:19.000,0.733483,0.6884474,1.3240583000000001,1.164682,0.52297467,0.43789363,0.7988907,0.84097475,0.55884486,0.53465724,0.5830525,0.8465275999999999,0.9176728999999999,1.0524191,0.6888314999999999,1.2208948,0.88717145,1.1382333999999998,0.43086442,1.1580771,1344.9817,802.6374,844.5421,1128.608,1121.7583,-0.357421875,0.0093994140625,0.9622802734375,2.10845947265625,-3.566436767578125,0.35888671875,73.0,73.0,0.0
705.4868208714363,73.17306999755023,,,,,,,42.09787428423915,42.23146615350732,0.10371996730876548,0.05967209172276065,700.0,91.23692307692309,0.13033846153846154,115.38461538461536,13.98601398601399,60.839160839160854,17.875,148.4375,,,0.0483899847887526,0.010344503799638579,0.0016627363996682494,4.677844943171007,0.8011954986064233,0.17127448821835264,-4.571299934170517,2021-09-24 19:16:20,2021-09-24 19:16:20.000,0.733483,0.6884474,0.3787173,1.1077088,0.52297467,0.43789363,0.21769951,0.56617475,0.55884486,0.53465724,0.12245989,0.45896348,0.9176728999999999,1.0524191,0.51905113,1.2104108,0.88717145,1.1382333999999998,0.68331516,1.1879583999999999,263.51648,804.2491,792.1612,558.0586,655.16486,-0.346435546875,0.02032470703125,0.9666748046875,1.921539306640625,-3.416900634765625,-0.2392578125,76.0,73.0,3.0
706.0363247863247,73.21432225908872,,,,,,,42.073536578729055,42.212587827980975,0.10369767062798976,0.059591178387970636,700.0,91.23692307692309,0.13033846153846154,115.38461538461536,13.888888888888891,61.111111111111114,18.0,148.4375,,,0.048393969063560166,0.01034450517970471,0.0016627359791545472,4.678229477665708,0.8012085997177179,0.1712632104822477,-4.571299800759957,2021-09-24 19:16:21,2021-09-24 19:16:21.003,0.733483,0.6884474,0.5922163,1.1077088,0.52297467,0.43789363,0.45375395,0.56617475,0.55884486,0.53465724,0.36845425,0.45896348,0.9176728999999999,1.0524191,0.5371968,1.2104108,0.88717145,1.1382333999999998,0.6471939999999999,1.1879583999999999,830.0366,807.8755,749.45056,778.46155,671.685,-0.35565185546875,0.01513671875,0.95660400390625,3.27484130859375,-2.2430419921875,-1.173858642578125,85.0,70.0,15.0
706.2068965517243,72.98856867281859,,,,,,,42.166625737676114,42.3110541967125,0.10335295368709664,0.05970860089807652,700.0,91.23692307692309,0.13033846153846154,115.38461538461536,14.482758620689655,61.379310344827594,18.125,148.4375,,,0.04839572641168531,0.010344505787748377,0.0016627357791040135,4.678399084952255,0.8012143778908548,0.17125823670492438,-4.571299741980573,2021-09-24 19:16:22,2021-09-24 19:16:22.019,0.733483,0.6884474,0.5922163,1.1077088,0.52297467,0.43789363,0.45375395,0.56617475,0.55884486,0.53465724,0.36845425,0.45896348,0.9176728999999999,1.0524191,0.5371968,1.2104108,0.88717145,1.1382333999999998,0.6471939999999999,1.1879583999999999,578.60803,812.71063,789.34064,703.5165,768.7912,-0.3609619140625,0.02349853515625,0.96466064453125,-1.712188720703125,-5.4730224609375,1.8841552734375,100.0,77.0,23.0
706.5410779696495,72.54313249633718,,,,,,,41.8768173155915,42.018278032668455,0.10267362331543499,0.05927018063256951,700.0,91.23692307692309,0.13033846153846154,115.38461538461536,14.285714285714285,60.54421768707482,16.333333333333332,203.125,,,0.04839691230153409,0.010344506195357863,0.0016627356287779664,4.678513540187388,0.8012182771543337,0.17125488048117152,-4.571299702577097,2021-09-24 19:16:23,2021-09-24 19:16:23.000,0.733483,0.6884474,0.5922163,1.1077088,0.52297467,0.43789363,0.45375395,0.56617475,0.55884486,0.53465724,0.36845425,0.45896348,0.9176728999999999,1.0524191,0.5371968,1.2104108,0.88717145,1.1382333999999998,0.6471939999999999,1.1879583999999999,325.9707,805.8608,803.0403,568.5348,567.326,-0.32305908203125,-0.02886962890625,0.983642578125,1.517791748046875,-2.9010009765625,-3.491668701171875,100.0,95.0,5.0
706.6008316008317,72.29962064089659,,,,,,,41.7534217384002,41.894556605516684,0.10232031637593604,0.059090535803370335,700.0,85.53461538461536,0.12219230769230767,115.38461538461536,14.189189189189188,60.13513513513514,16.444444444444443,203.125,,,0.04839733997413136,0.01034450634325272,0.001662735577487074,4.678554816267175,0.8012196832744022,0.17125367014800996,-4.57129968828015,2021-09-24 19:16:24,2021-09-24 19:16:24.038,0.733483,0.6884474,0.5922163,1.1077088,0.52297467,0.43789363,0.45375395,0.56617475,0.55884486,0.53465724,0.36845425,0.45896348,0.9176728999999999,1.0524191,0.5371968,1.2104108,0.88717145,1.1382333999999998,0.6471939999999999,1.1879583999999999,796.99634,819.9634,784.90845,811.9048,694.2491,-0.360595703125,0.016845703125,0.9649658203125,4.605712890625,-4.44122314453125,2.923431396484375,100.0,100.0,0.0
706.5128205128208,71.83888195551528,,,,,,,41.625179562937596,41.76399436581292,0.10168093185254752,0.05891638248365268,700.0,79.83230769230764,0.11404615384615376,113.46153846153842,14.000000000000002,60.66666666666667,16.666666666666668,203.125,,,0.04839613547491065,0.010344505926998931,0.0016627357220081324,4.6784385659829155,0.8012157230153841,0.17125707898379833,-4.571299728519267,2021-09-24 19:16:25,2021-09-24 19:16:25.006,0.733483,0.6884474,0.5922163,1.1077088,0.52297467,0.43789363,0.45375395,0.56617475,0.55884486,0.53465724,0.36845425,0.45896348,0.9176728999999999,1.0524191,0.5371968,1.2104108,0.88717145,1.1382333999999998,0.6471939999999999,1.1879583999999999,1367.9487,806.6667,801.8315,1075.0183,834.4689,-0.36248779296875,0.06195068359375,0.9532470703125,1.24114990234375,-2.086029052734375,0.381317138671875,100.0,100.0,0.0
706.5128205128208,71.83888195551528,,,,,,,41.625179562937596,41.76399436581292,0.10168093185254752,0.05891638248365268,700.0,79.83230769230764,0.11404615384615376,113.46153846153842,14.000000000000002,60.66666666666667,16.666666666666668,203.125,,,0.04839613547491065,0.010344505926998931,0.0016627357220081324,4.6784385659829155,0.8012157230153841,0.17125707898379833,-4.571299728519267,2021-09-24 19:16:26,2021-09-24 19:16:26.014,0.733483,-0.009198475,0.28009593,0.36251134,0.52297467,-0.008571609,-0.20137220000000008,0.12810682,0.55884486,0.16236879999999998,0.33486304,0.5073588,0.9176728999999999,0.782058,0.14244391,0.8444976000000001,0.88717145,0.526613,0.15236117,0.8435139000000001,880.40295,801.4286,793.7729,827.6189999999997,970.2564,-0.37548828125,0.07000732421875,0.95428466796875,2.930908203125,-3.222503662109375,1.256103515625,94.0,94.0,0.0
707.7429149797571,72.24434804946434,,,,,,,41.880630668660544,42.0049527557234,0.1020771052883386,0.059174920415640486,700.0,85.53461538461536,0.12219230769230767,109.61538461538464,15.13157894736842,61.18421052631579,16.88888888888889,203.125,,,0.048400904709206,0.010344507580058613,0.0016627351503576946,4.678898858608768,0.8012314027272976,0.17124358250512325,-4.571299568718541,2021-09-24 19:16:27,2021-09-24 19:16:27.035,0.30002704,-0.019224383,-0.064467125,0.25330687,0.38938445,0.17739819,-0.21219887,0.3173818,0.85020185,0.21620034,0.27619287,0.771729,0.96524185,0.6403823000000001,0.23232922,0.8046813,1.0617017,0.58794445,0.07248575,0.6888318,332.41757,821.1722,797.8022,563.2967,696.6667,-0.3740234375,0.06683349609375,0.94903564453125,2.16827392578125,-3.15521240234375,1.428070068359375,87.0,85.0,2.0
708.24534942182,72.27400679288083,,,,,,,41.910167755813866,42.04086557267959,0.10204656741040673,0.05917464589076012,700.0,91.23692307692309,0.13033846153846154,107.69230769230774,15.032679738562093,61.437908496732035,17.0,203.125,,,0.04840513738001753,0.010344509058081628,0.0016627346443932485,4.6793073608651445,0.8012453161533375,0.1712316063814191,-4.571299425838573,2021-09-24 19:16:28,2021-09-24 19:16:28.001,0.39945132,0.9078431,0.24487689,0.42817882,0.5204181,0.68422973,-0.009569437,0.5778622,0.45137393,0.9811595999999999,0.14198953,0.8441476000000001,1.0726401,0.570157,0.34882322,0.7947026,1.2025455,0.4122839,0.26716748,0.6973309,882.4176,799.0110000000003,810.696,842.5274699999999,806.26373,-0.35174560546875,0.0438232421875,0.9556884765625,-0.418701171875,-3.536529541015625,4.822540283203125,79.0,70.0,9.0
708.7344913151364,71.93667123714577,,,,,,,41.72931328801654,41.862462115434475,0.10150016983604003,0.05887862633943935,700.0,79.83230769230764,0.11404615384615376,107.69230769230774,14.838709677419354,61.29032258064516,17.22222222222222,203.125,,,0.0484080292214564,0.010344510073771131,0.0016627342994453512,4.679586454673832,0.8012548208624645,0.1712234251088993,-4.571299327652238,2021-09-24 19:16:29,2021-09-24 19:16:29.247,0.4792335999999999,1.3716918,1.1639713,0.5846252,0.5649959,1.086742,1.0298107,0.7543884,0.40521702,0.9811595999999999,0.8125228,0.62162477,1.0739045,0.8383606,0.60040915,0.66624075,1.2017783000000002,0.4269169,0.58300775,0.6642808000000001,982.3443,811.9048,828.4249,891.28204,873.5531,-0.36346435546875,0.0281982421875,0.947998046875,0.67291259765625,-4.0673828125,1.74957275390625,64.0,49.0,15.0
709.0236686390532,71.79515015534255,,,,,,,41.61283664105967,41.743449174297545,0.1012591727623859,0.058690335008045776,700.0,79.83230769230764,0.11404615384615376,107.69230769230774,14.743589743589745,60.89743589743589,17.333333333333332,203.125,,,0.04840904203571955,0.010344510430620369,0.001662734178774444,4.6796842016250375,0.8012581494800327,0.17122055996893826,-4.571299293155752,2021-09-24 19:16:30,2021-09-24 19:16:30.000,0.4792335999999999,1.3716918,1.4894707,0.5846252,0.5649959,1.086742,1.2797613,0.7543884,0.40521702,0.9811595999999999,0.9159709,0.62162477,1.0739045,0.8383606,0.68335015,0.66624075,1.2017783000000002,0.4269169,0.6074025,0.6642808000000001,846.5567599999997,807.0696,804.2491,839.304,846.5567599999997,-0.3643798828125,0.045166015625,0.95452880859375,1.8841552734375,-3.506622314453125,1.069183349609375,53.0,34.0,19.0
709.4561489465947,71.76953947700756,,,,,,,41.520377391524725,41.64748899158664,0.10116134673520197,0.05852423360228037,700.0,79.83230769230764,0.11404615384615376,107.69230769230774,14.64968152866242,61.14649681528664,17.444444444444443,203.125,,,0.04841095801595123,0.010344511107273715,0.001662733950695631,4.679869112607091,0.8012644460266601,0.17121514015597902,-4.571299227743925,2021-09-24 19:16:31,2021-09-24 19:16:31.004,0.4792335999999999,0.90049946,0.98047733,0.5846252,0.5649959,0.48219597,0.6982988,0.7543884,0.40521702,0.33121133,0.7879325,0.62162477,1.0739045,0.6759542,0.32497352,0.66624075,1.2017783000000002,0.45034084,0.010050323,0.6642808000000001,311.4652,803.0403,799.41394,582.6374,616.4835,-0.359619140625,0.045166015625,0.95208740234375,1.12152099609375,-5.6524658203125,-0.560760498046875,51.0,21.0,30.0
710.0778967867575,71.9662201834911,,,,,,,41.460721708819044,41.582910677089494,0.1013497540328356,0.058388976612899775,703.8461538461537,85.53461538461536,0.1215245901639344,107.69230769230774,14.556962025316455,61.39240506329114,17.555555555555557,203.125,,,0.04841391465858672,0.010344512155513241,0.001662733599245404,4.6801544558854715,0.8012741616907679,0.17120677730691888,-4.5712991264110086,2021-09-24 19:16:32,2021-09-24 19:16:32.090,0.12760337,0.37468892,0.06194968,0.20483899,0.055854562999999996,0.22425218,0.09474578,0.36229882,0.28210127,0.4535378,0.4474972,0.34691286,0.8472204,0.58366555,0.24542533,0.809896,0.9340543,0.5303449,-0.0365578,0.6761778,308.24176,799.41394,799.0110000000003,576.99634,612.0513,-0.37103271484375,0.051025390625,0.95538330078125,1.981353759765625,-3.058013916015625,0.515899658203125,52.0,21.0,31.0
710.3846153846155,71.57614064610655,,,,,,,41.782151744302354,41.91076525092709,0.10075688450453543,0.05881623959674396,707.6923076923077,79.83230769230772,0.11280652173913047,107.69230769230774,15.0,61.875,17.777777777777782,203.125,,,0.04841611992137847,0.010344512940558059,0.001662733337511038,4.6803672825959595,0.8012814076191127,0.17120054030774332,-4.5712990505210325,2021-09-24 19:16:33,2021-09-24 19:16:33.004,0.2568948,0.05015747,-0.23919946,0.19113143,0.14786035,0.09136325,-0.20346849,0.36526190000000003,1.2490392,0.5697809,0.16238227,0.97642785,0.8990424000000001,0.5534941999999999,0.23329112,0.8069514,0.8805702,0.4661342000000001,0.03214855,0.64101696,158.75458,763.5531,805.05493,429.5238,518.97437,-0.3770751953125,0.058349609375,0.941162109375,2.459869384765625,-3.6187744140625,-0.2691650390625,51.0,20.0,31.0
710.7023411371238,71.46591603427439,,,,,,,41.669132076962406,41.79525949523523,0.10055674773763784,0.058630919957702386,707.6923076923077,79.83230769230764,0.11280652173913035,107.69230769230774,14.906832298136644,61.49068322981367,17.88888888888889,203.125,,,0.04841777699542095,0.010344513532245593,0.0016627331410636384,4.680527203574589,0.8012868519648929,0.17119585403818144,-4.571298993322833,2021-09-24 19:16:34,2021-09-24 19:16:34.004,0.4554455,0.7325689000000001,0.25616710000000004,0.24383777,0.26073506,0.35831904,-0.1900137,0.26434650000000004,1.2490392,0.49704975,0.28391638,0.9595961,0.9442710999999999,0.4719514,0.41423202,0.86977464,0.9325761,0.48609537,0.39321893,0.6500505999999999,1019.0110000000001,783.2967,792.1612,910.6227,1054.8718,-0.3824462890625,0.05712890625,0.94512939453125,1.8841552734375,-4.628143310546875,0.25421142578125,43.0,25.0,18.0
710.3822557810288,71.08179531289393,,,,,,,41.849805717419116,41.97932967692138,0.10006133280277836,0.05891167097270385,707.6923076923077,79.83230769230764,0.11280652173913035,103.84615384615392,15.337423312883436,61.34969325153374,18.11111111111111,203.125,,,0.04841683070584536,0.01034451319416831,0.0016627332532234392,4.680435879103544,0.8012837429533091,0.1711985301477479,-4.571299026004629,2021-09-24 19:16:35,2021-09-24 19:16:35.035,0.61843705,0.43065494,0.7966894,0.3534182,0.40172407,0.23517357,0.6237071,0.32605764,1.2490392,0.39576694,0.8865423000000001,0.95579314,0.9608530000000001,0.41269588,0.698178,0.87157494,0.9867228000000001,0.26762933,0.48001499999999997,0.68202984,634.21246,801.02563,780.87915,725.6777,637.03296,-0.38116455078125,0.04315185546875,0.93768310546875,-0.919647216796875,-4.20196533203125,-1.51031494140625,37.0,32.0,5.0
710.1782363977486,70.91156652662114,,,,,,,41.725584848777366,41.854062311856715,0.09985037965441933,0.05875368000633601,703.8461538461537,85.53461538461528,0.12152459016393427,101.92307692307692,15.24390243902439,60.97560975609756,18.222222222222218,148.4375,,,0.048415896060511665,0.010344512860742266,0.001662733364064669,4.680345678166384,0.8012806720956581,0.1712011734162283,-4.571299058236794,2021-09-24 19:16:36,2021-09-24 19:16:36.000,0.61843705,0.79356146,1.1651957,0.3534182,0.40172407,0.46685052,0.92320603,0.32605764,1.2490392,0.5957023,0.90735656,0.95579314,0.9608530000000001,0.39473334,0.60596883,0.87157494,0.9867228000000001,0.31329158,0.29899755,0.68202984,181.31868,800.2198,749.0476,482.30768,577.3993,-0.35821533203125,0.03326416015625,0.95831298828125,3.820648193359375,-2.99072265625,-0.3887939453125,31.0,32.0,-1.0
710.3030303030303,70.71321386942634,,,,,,,41.810139286417844,41.93605748517269,0.09955358607897057,0.058862397459547314,707.6923076923077,79.83230769230764,0.11280652173913035,100.0,15.757575757575754,61.212121212121204,16.5,203.125,,,0.048415143379411545,0.010344512592585616,0.0016627334533709881,4.680273038104558,0.8012781990227716,0.1712033021362526,-4.571299084159391,2021-09-24 19:16:37,2021-09-24 19:16:37.011,0.61843705,0.09007008,0.7065183,0.3534182,0.40172407,-0.024741787,0.47539642,0.32605764,1.2490392,0.37720478,0.6629881999999999,0.95579314,0.9608530000000001,0.45224452,0.31746614,0.87157494,0.9867228000000001,0.27455255,0.29519475,0.68202984,395.67764,796.1905,803.0403,613.663,1000.4762,-0.3558349609375,0.02838134765625,0.96307373046875,2.46734619140625,-2.6617431640625,0.31402587890625,26.0,29.0,-2.9999999999999964
711.1008751727313,70.6809538796271,,,,,,,41.89919905661103,42.02163060451922,0.09939652213542584,0.05892159680781354,707.6923076923077,79.83230769230764,0.11280652173913035,100.0,16.167664670658677,61.676646706586816,16.7,203.125,,,0.04841941585526165,0.010344514118936108,0.001662732946964433,4.680685366036449,0.8012922361513457,0.17119121955207833,-4.571298936607697,2021-09-24 19:16:38,2021-09-24 19:16:38.018,0.23916583,0.16065216,0.5225711,-0.5924104,0.573742,0.06200419999999999,0.25029254,-0.06597305,0.8349863999999999,0.24605846,0.6832365,0.19901131,0.8599474,0.3685474,0.2829018,0.8330350000000001,0.8539198,0.27345127,0.40794834,0.5556175,736.5567599999997,807.47253,785.7143,778.46155,1158.4249,-0.3564453125,0.0303955078125,0.9588623046875,2.145843505859375,-3.24493408203125,0.28411865234375,27.0,26.0,1.0
711.8378627360663,70.80260980457841,,,,,,,41.920462290183025,42.04226668856178,0.09946451785022632,0.05889046436649885,707.6923076923077,79.83230769230764,0.11280652173913035,100.0,16.167664670658677,62.275449101796404,16.7,203.125,,,0.050922569326921165,0.010660525018091435,0.0017528127245083403,4.776741224330233,0.8040078950953649,0.16831723916718938,-4.541207610229152,2021-09-24 19:16:39,2021-09-24 19:16:39.022,0.5696432,0.15764278,0.40132654,-0.30626294,0.5845720999999999,0.10275245,0.1555145,0.14147995,0.737628,0.39510098,0.45083234,0.42763909999999994,0.89580125,0.4057363,0.4161195,0.81766164,0.8566113999999999,0.3374002,0.29936275,0.57620144,1122.1611,803.8461,805.05493,954.9450699999999,891.28204,-0.36627197265625,0.025146484375,0.9544677734375,1.9439697265625,-5.18890380859375,-0.500946044921875,32.0,22.0,10.0
712.8822984244672,71.45214667745206,,,,,,,42.14952421993643,42.26945382506384,0.10022993534187567,0.05912550264341058,707.6923076923077,79.83230769230772,0.11280652173913047,105.76923076923084,16.265060240963855,63.25301204819278,16.6,203.125,,,0.05552223293435836,0.011167623213118505,0.0019032295583466946,4.97171438136782,0.8094435811282437,0.16280975113167087,-4.494736471611626,2021-09-24 19:16:40,2021-09-24 19:16:40.000,0.6846260999999999,-0.35919213,0.4749095999999999,-0.0899626,0.12011135,-0.34159687,0.18325451,0.19310011,0.33884790000000004,0.08471181,0.354078,0.5633723,0.9397518,0.39928645,0.37239662,0.7196866999999999,0.6550991999999999,0.19832072,0.23632832,0.5399728,361.42856,807.0696,806.6667,609.2308,637.8388,-0.3013916015625,0.031494140625,0.9766845703125,1.86920166015625,-8.785247802734375,0.814971923828125,37.0,25.0,12.0
713.8090824837813,72.07828545549738,,,,,,,42.16228455855661,42.27923003347772,0.10097698001360902,0.059066612618388185,711.5384615384614,85.53461538461545,0.1202108108108109,107.69230769230774,16.265060240963855,63.25301204819278,16.6,203.125,,,0.05721716339072426,0.011133634852835878,0.0019401771129111134,5.139126991950012,0.8140044024222896,0.1583935177506521,-4.49778458544427,2021-09-24 19:16:41,2021-09-24 19:16:41.000,0.9686847,-0.14936629,0.75085354,0.88587236,0.67290336,-0.2622171,0.41120870000000004,0.40457459999999995,1.1464623999999999,0.22632091,0.40781072,0.5276945,1.0772209,0.38264328,0.4536739000000001,1.0017699,0.9232394,0.28210634,0.20542783,0.7611352,1219.6703,807.8755,800.2198,1002.8938,974.2857,-0.29779052734375,0.0220947265625,0.97802734375,1.74957275390625,-3.03558349609375,0.186920166015625,41.0,28.000000000000004,12.999999999999995
714.828544949027,72.10339768006303,,,,,,,42.52223626964305,42.650039591860036,0.10086810073484767,0.05948592368072714,715.3846153846154,79.83230769230782,0.11159354838709694,107.69230769230774,16.867469879518072,64.45783132530121,16.6,203.125,,,0.059373904694717615,0.01109532681457713,0.0019691293597480486,5.351253341786354,0.8196472695186509,0.15316921423216276,-4.501231267008223,2021-09-24 19:16:42,2021-09-24 19:16:42.003,0.959726,0.41899845,0.5394991,0.86290663,0.62515634,-0.027326772000000003,0.11906510000000001,0.3199288,1.4097177,0.107920386,0.40169978,1.1872528,1.0057629000000001,0.306643,0.4020098,0.9107844999999999,0.96192485,0.279925,0.338136,0.7707797,410.98900000000003,808.6813400000003,806.6667,617.28937,843.3333,-0.29583740234375,0.02728271484375,0.97552490234375,1.383209228515625,-1.1962890625,-0.874786376953125,44.0,33.0,11.0
715.3382761816496,72.18755574581894,,,,,,,42.55595731877261,42.68294244841802,0.1009138727080892,0.059490675580690086,715.3846153846154,79.83230769230782,0.11159354838709694,107.69230769230774,16.867469879518072,65.06024096385542,16.6,203.125,,,0.061160775166887074,0.01108971301351348,0.0019804149850830913,5.515090885792897,0.8239260544970171,0.14939482803800835,-4.501737355906597,2021-09-24 19:16:43,2021-09-24 19:16:43.002,0.8818444,0.5004126,0.67304635,0.8386584,0.6125449000000001,0.14820272,0.31776863,0.2146908,1.385173,0.104791775,0.34444028,1.1835793,0.95875764,0.13705565,0.32995254,0.7955439999999999,0.98842657,0.14501143,0.3259797,0.7802147,1257.1428,802.2344400000003,791.75824,1023.8461,915.4579,-0.29144287109375,0.02490234375,0.980712890625,2.13836669921875,-4.643096923828125,0.396270751953125,42.0,36.0,6.0
716.2237762237761,72.45971296351662,,,,,,,42.63052676980876,42.755271388311634,0.10116909738120368,0.059521239290008326,715.3846153846154,79.83230769230782,0.11159354838709694,107.69230769230774,16.969696969696972,64.84848484848484,16.5,203.125,,,0.06089378892206373,0.010679503922939568,0.0018988816944860386,5.701930479304748,0.8288006895635699,0.14535440103517852,-4.539428895691847,2021-09-24 19:16:44,2021-09-24 19:16:44.036,0.0015333163,0.41234297,0.81536627,0.046562422,0.55932254,0.38144347,0.35870394,-0.044988077,1.1114011000000001,0.25375366,0.26880997,0.93077797,0.98266983,0.32849179999999994,0.45539826,0.81827974,0.7622126,0.15304519,0.070287526,0.435802,842.1245,809.8901400000003,790.14655,822.7839,906.1905,-0.2969970703125,0.02691650390625,0.980224609375,1.816864013671875,-3.043060302734375,-0.381317138671875,38.0,33.0,5.0
717.0528266913808,72.31957639552691,,,,,,,42.58123058081557,42.70583647690145,0.10085669242700472,0.05938367299560554,723.0769230769231,79.83230769230782,0.11040638297872356,107.69230769230774,16.867469879518072,65.06024096385542,16.6,203.125,,,0.05930034314509928,0.01017413549260258,0.0017836926194107477,5.8285387675656,0.8321900786806992,0.14277850965179034,-4.587906515135095,2021-09-24 19:16:45,2021-09-24 19:16:45.007,0.18407132,0.41215974,0.68233496,0.08076311,0.47994485,0.3544282,0.29818767,-0.0074710827,1.0791125,0.35186982,0.29746500000000003,1.1358937,1.2094489,0.3902834,0.51697284,0.8615415000000001,0.87560576,0.1959695,0.2140581,0.6367254,336.4469,797.8022,802.2344400000003,588.6813400000002,753.4798599999997,-0.29949951171875,0.024169921875,0.9805908203125,1.68975830078125,-4.17205810546875,0.31402587890625,35.0,30.0,5.0
717.7942539388321,72.37786319726352,,,,,,,42.59386158833542,42.71612710790897,0.10083371774028063,0.059339931121773964,723.0769230769231,79.83230769230782,0.11040638297872356,107.69230769230774,16.867469879518072,65.06024096385542,16.6,203.125,,,0.058230456768825774,0.009823767748945549,0.001681873460099821,5.9275074754364026,0.835011686304898,0.14087062559856525,-4.6229505490472045,2021-09-24 19:16:46,2021-09-24 19:16:46.000,0.3239822,-0.35296740000000004,-0.35645908,0.22658752,0.46943334,-0.22951329999999998,-0.35690194,0.0767317,1.3047253,0.6147477,0.21414655,1.1854538000000001,1.014217,0.44619220000000004,0.49120083,0.7756821,0.77757597,0.17167784,0.3184979,0.5157003,284.4688700000001,803.4432400000003,794.17584,564.5055,647.50916,-0.2913818359375,0.019287109375,0.97979736328125,1.921539306640625,-4.747772216796875,-0.336456298828125,30.0,30.0,0.0
719.3473193473192,72.18326916526397,,,,,,,42.55004778615564,42.66781725303619,0.10034550379746676,0.05915090894446135,730.7692307692308,79.83230769230782,0.10924421052631596,107.69230769230774,16.969696969696972,64.24242424242425,16.5,203.125,,,0.057695482587226274,0.009628879630083978,0.0015934961484395313,5.991920639132871,0.8371630221158944,0.1397153054144999,-4.6429884015723015,2021-09-24 19:16:47,2021-09-24 19:16:47.076,-0.035202034,0.23941463,0.3873924,-0.23990838,0.45566028,0.17261179999999998,0.07031926,-0.41672754,1.5395671,0.7850674,0.21636362,1.2977683999999998,0.82678556,0.5518566999999999,0.5012759,0.7759009,0.7100215,0.35161570000000003,0.25269723,0.45012486,1333.2968,811.5018299999997,812.71063,1060.5128,856.2271,-0.30303955078125,0.02569580078125,0.9742431640625,1.906585693359375,-2.79632568359375,-0.142059326171875,29.0,30.0,-1.0000000000000036
720.9193245778612,71.77460950528227,,,,,,,42.676116891264044,42.79608665170878,0.09955983569633167,0.05919679974767403,730.7692307692308,79.83230769230782,0.10924421052631596,109.61538461538464,17.073170731707318,64.63414634146342,14.909090909090908,257.8125,,,0.05779055897010986,0.009604571932134341,0.0015018205354717506,6.01698434646088,0.8387970405679493,0.13940488993648786,-4.645516050945358,2021-09-24 19:16:48,2021-09-24 19:16:48.014,-0.17424904,0.23244049,0.3891394,-0.06249155,0.07226992,0.17129798,0.18805096,0.15080276,1.1597621,0.22034024,0.18251686,1.2506046999999998,0.7504344000000001,0.43035674,0.46059272,0.8254138000000001,0.6733975,0.42853904,0.44917458,0.48178396,1101.6117,794.57874,789.34064,957.7655599999999,1204.762,-0.30560302734375,0.0263671875,0.97564697265625,1.876678466796875,-3.820648193359375,-0.22430419921875,30.0,35.0,-5.0
722.6107226107225,71.82796115395229,,,,,,,42.48215775841254,42.60188152121822,0.09940063011305013,0.058789824768899934,730.7692307692308,79.83230769230782,0.10924421052631596,107.69230769230774,16.969696969696972,64.24242424242425,15.0,257.8125,,,0.058457341763671136,0.009760548232531512,0.001443409852661776,5.989145319607682,0.8391652451289145,0.14011435694866126,-4.629406708768754,2021-09-24 19:16:49,2021-09-24 19:16:49.018,-0.069051616,-0.550229,-0.5533863,-0.3231974,0.062730365,-0.29255235,-0.25731295,0.044994462,1.2351121,-0.02806978,-0.04680456,1.3087688999999998,0.81444293,0.5444994000000001,0.5679414,0.90250057,0.73797154,0.7237760999999999,0.4408322,0.5634962,1330.8792,793.36993,797.3993,1061.3187,973.8828,-0.30645751953125,0.0234375,0.976806640625,1.614990234375,-3.42437744140625,0.291595458984375,35.0,40.0,-5.0
723.6866791744841,71.99900349468294,,,,,,,42.63356416666142,42.75905151186081,0.09948919272192884,0.058911633160491375,730.7692307692308,79.83230769230782,0.10924421052631596,109.61538461538464,17.073170731707318,65.2439024390244,14.909090909090908,257.8125,,,0.05964164428544925,0.010069412601850814,0.0013973366384019744,5.923050990530151,0.8387426761918318,0.14160652635488438,-4.598252905447472,2021-09-24 19:16:50,2021-09-24 19:16:50.032,0.30943802,-0.4607347,-0.19755901,-0.029104859,0.23117915,-0.5373339,-0.45821273,-0.09827774,1.1667318000000002,0.064871185,-0.14772773,0.99266076,0.8016058,0.57187575,0.49238554,0.8020257,0.88725334,0.65940726,0.31650734,0.70160586,1103.2234,811.5018299999997,803.8461,932.7839,751.8681,-0.30596923828125,0.02117919921875,0.971435546875,2.1533203125,-3.87298583984375,0.231781005859375,45.0,34.0,11.0
724.5778611632269,72.32043328944637,,,,,,,42.663355530333455,42.782156400678794,0.09981043745021986,0.05888029129380563,730.7692307692308,79.83230769230782,0.10924421052631596,115.38461538461547,17.073170731707318,65.2439024390244,14.909090909090908,257.8125,,,0.06180982353253514,0.010665809326434048,0.0013570576667250038,5.795136744039312,0.8371606546157894,0.1444591718179671,-4.540712043727623,2021-09-24 19:16:51,2021-09-24 19:16:51.004,0.02373593,-0.35496184,-0.020241624,-0.13105291,0.30216688,-0.70144594,-0.47975382,-0.009095998000000001,1.3391577,0.040361065,0.10790422,1.0916375,0.7949337,0.58211434,0.25600833,0.6347891999999999,0.72121584,0.40512929999999997,0.54675084,0.5815885999999999,421.86813,801.4286,784.5055,628.5714,569.7436,-0.30767822265625,0.02044677734375,0.97552490234375,1.801910400390625,-2.79632568359375,-0.46356201171875,57.99999999999999,34.0,23.999999999999996
726.2859839546958,72.07827637057326,,,,,,,42.576629468194646,42.694597838486686,0.09924227916130264,0.058622402757052924,730.7692307692308,79.83230769230782,0.10924421052631596,115.38461538461547,17.177914110429448,64.41717791411043,14.818181818181818,257.8125,,,0.06407772086471318,0.011312554441746184,0.001340246767487564,5.664301656595807,0.8351008064686442,0.14743226210352153,-4.481842157437623,2021-09-24 19:16:52,2021-09-24 19:16:52.003,0.12774332,-0.11096051,-0.1418661,0.063814126,0.09737674,-0.4000532,-0.43066448,0.22895774,1.3378056999999999,0.303307,0.07146823,1.2923743,0.8853610000000001,0.6337791,0.26388317,0.73788494,0.8268905999999999,0.7104406,0.45820323,0.6068511,356.5934,780.4762,791.3553,607.619,523.00366,-0.31494140625,0.016845703125,0.97332763671875,1.9439697265625,-3.820648193359375,0.171966552734375,66.0,32.0,34.0
728.6927796130251,72.39301783905313,,,,,,,42.5508852577577,42.66876529597835,0.09934641849682893,0.05839344981619622,730.7692307692308,79.83230769230782,0.10924421052631596,111.53846153846158,17.177914110429448,64.41717791411043,14.818181818181818,257.8125,,,0.06356206360072834,0.011600290278402316,0.0012624006916221995,5.479351126158424,0.8316947036039686,0.15178707924620086,-4.456725157182714,2021-09-24 19:16:53,2021-09-24 19:16:53.000,0.27383056,-0.36402312,-0.29244986,0.056590892000000004,0.13027427,-0.22116950000000002,-0.2908667,0.18625250000000002,1.2977537000000001,0.35362899999999997,-0.030129757000000007,1.2833958,0.76585084,0.45934582,0.33672458,0.7032565,0.8088349,0.88242507,0.5740142,0.61715704,296.95972,799.41394,788.9377400000003,586.6667,601.5751,-0.30755615234375,0.01800537109375,0.97930908203125,1.55517578125,-3.60382080078125,-0.216827392578125,68.0,34.0,34.0
729.4478527607363,72.41084503376757,,,,,,,42.756404917199184,42.883031969855814,0.09926802136672933,0.058614751904991325,738.4615384615386,79.83230769230764,0.10810624999999993,107.69230769230774,17.791411042944784,65.03067484662577,14.818181818181818,257.8125,,,0.06178144546624826,0.011602374884778334,0.0011889800408157196,5.324896504361538,0.8284715759850514,0.15558454052702494,-4.456545470378033,2021-09-24 19:16:54,2021-09-24 19:16:54.009,0.19018306,-0.4979612,-0.33017915,0.17775510000000005,0.34522232,0.21220775,-0.020605683,0.32339317,1.3621689,0.6019595,0.532508,1.1815052,0.8154929,0.4280226,0.49099960000000004,0.75774103,0.6988814,0.8514169,0.63120943,0.57130516,936.8132,796.1905,790.54944,878.7912,977.9121,-0.32574462890625,0.01336669921875,0.97607421875,2.0037841796875,-2.6617431640625,0.216827392578125,65.0,35.0,30.0
730.3916941953752,72.72396232142238,,,,,,,42.82469229138378,42.949850324604384,0.09956844101511536,0.05863250175450167,738.4615384615386,79.83230769230764,0.10810624999999993,107.69230769230774,17.791411042944784,65.03067484662577,14.818181818181818,257.8125,,,0.059689519087675474,0.01154170086741551,0.001126445123370769,5.171639758589718,0.8249232340893055,0.1595090285859853,-4.4617886399053575,2021-09-24 19:16:55,2021-09-24 19:16:55.007,0.18936583,-0.16029151,-0.3654779,-0.05645339,0.62288266,0.33143735,0.07122658,0.57901615,1.209559,0.6046170999999999,0.53699505,1.0985253000000001,0.9090872999999999,0.59106857,0.60390717,0.7276571999999999,0.71223783,0.85274225,0.6736225,0.6037199000000001,769.59705,811.9048,780.4762,793.36993,756.30035,-0.3192138671875,0.01922607421875,0.97259521484375,2.175750732421875,-2.76641845703125,0.16448974609375,56.99999999999999,36.0,20.999999999999996
730.9591642924976,72.95020379451236,,,,,,,42.7086503415335,42.832228109026865,0.0998006555744076,0.058428230232083635,738.4615384615386,79.83230769230764,0.10810624999999993,107.69230769230774,17.901234567901234,65.4320987654321,14.727272727272727,257.8125,,,0.055614561073639886,0.011070018770468204,0.001043803786288192,5.023890404052827,0.8211411241871163,0.16344726061792522,-4.5035148366471125,2021-09-24 19:16:56,2021-09-24 19:16:56.019,0.11057636,0.47185913,0.81525356,-0.30520362,0.6573409,0.45714733,0.44772124,0.5389541999999999,0.93693405,0.49790037,0.66522664,0.8293676,0.92729133,0.5784117,0.46306527,0.80897886,0.7093494,0.8806948,0.66197914,0.59684753,409.7802,822.3810000000003,785.7143,622.52747,562.0879,-0.32550048828125,0.01513671875,0.96917724609375,1.861724853515625,-4.0972900390625,0.07476806640625,47.0,39.0,8.0
732.2981366459627,72.59364425502515,,,,,,,42.651574469575316,42.77763258326426,0.09913126993264673,0.05824345623071778,746.1538461538463,68.42769230769235,0.09170721649484542,107.69230769230774,18.01242236024845,64.59627329192547,14.636363636363635,257.8125,,,0.051819921342333736,0.01068006139986635,0.0009852668959758981,4.852024665605594,0.8162513597673959,0.16822902108341148,-4.539376696415458,2021-09-24 19:16:57,2021-09-24 19:16:57.012,0.29075503,0.111158274,0.4716443,0.14425611,0.48870042,0.30623358,-0.08460219999999999,0.32171705,0.9235619,0.35859528,0.4148340999999999,0.7475699,0.83561575,0.47515517,0.47668752,0.74021876,0.8577594000000001,0.8717038,0.70098615,0.6934888000000001,263.51648,817.5458,791.75824,551.6117,602.381,-0.2939453125,0.024169921875,0.9761962890625,-0.6878662109375,-7.3870849609375,4.007568359375,42.0,40.0,2.0
733.5707502374169,72.35228607741504,,,,,,,42.523231528147726,42.64718499714115,0.09863027670336984,0.057967457827871785,746.1538461538463,68.42769230769235,0.09170721649484542,105.76923076923084,17.901234567901234,64.19753086419753,13.5,257.8125,,,0.04971575103730876,0.010519045146769322,0.0009695450343065028,4.7262608291568915,0.8122912533265715,0.17186763123936066,-4.554567841308236,2021-09-24 19:16:58,2021-09-24 19:16:58.033,0.09559699,-0.40530917,0.0066959783,0.22346647,0.20181338,-0.31378922,-0.22680648,0.1432902,1.2050598,0.14958672,0.34474570000000004,1.1797971999999999,0.8554261999999999,0.44647205,0.4759655,0.7372601,0.7797632,0.9515395000000001,0.63397396,0.6965680999999999,548.3883,809.8901400000003,794.57874,694.65204,677.7289400000002,-0.29534912109375,0.03424072265625,0.98883056640625,3.8580322265625,-1.457977294921875,-0.680389404296875,41.0,39.0,2.0
734.7826086956524,71.73920839468444,,,,,,,42.707897361511726,42.83807930211242,0.09763324219394924,0.058123173923950874,746.1538461538463,68.42769230769235,0.09170721649484542,100.0,18.633540372670808,63.975155279503106,13.416666666666664,257.8125,,,0.04805013702280102,0.010485909611787678,0.0009835332420673436,4.582352776413953,0.8072996671410745,0.17617580019075904,-4.5577228647633135,2021-09-24 19:16:59,2021-09-24 19:16:59.013,0.4028093,-0.10252332,-0.04178104,0.15018632,0.39222756,-0.020531498000000002,-0.2495798,0.23491836,1.294992,0.33243343,0.3413251,1.3348514,0.8532690999999999,0.6232985,0.4582772,0.6526479000000001,0.8249340000000001,1.1714579,0.45501414,0.73966175,861.8681,808.6813400000003,803.0403,848.9743699999997,910.2198,-0.28363037109375,0.01947021484375,0.97955322265625,2.340240478515625,-3.401947021484375,-0.88226318359375,42.0,42.0,0.0
