HRV_MeanNN,HRV_SDNN,HRV_SDANN1,HRV_SDNNI1,HRV_SDANN2,HRV_SDNNI2,HRV_SDANN5,HRV_SDNNI5,HRV_RMSSD,HRV_SDSD,HRV_CVNN,HRV_CVSD,HRV_MedianNN,HRV_MadNN,HRV_MCVNN,HRV_IQRNN,HRV_pNN50,HRV_pNN20,HRV_HTI,HRV_TINN,HRV_ULF,HRV_VLF,HRV_LF,HRV_HF,HRV_VHF,HRV_LFHF,HRV_LFn,HRV_HFn,HRV_LnHF,Time,TimeStamp,Delta_TP9,Delta_AF7,Delta_AF8,Delta_TP10,Theta_TP9,Theta_AF7,Theta_AF8,Theta_TP10,Alpha_TP9,Alpha_AF7,Alpha_AF8,Alpha_TP10,Beta_TP9,Beta_AF7,Beta_AF8,Beta_TP10,Gamma_TP9,Gamma_AF7,Gamma_AF8,Gamma_TP10,RAW_TP9,RAW_AF7,RAW_AF8,RAW_TP10,AUX_RIGHT,Accelerometer_X,Accelerometer_Y,Accelerometer_Z,Gyro_X,Gyro_Y,Gyro_Z,Attention,Meditation,A_M
687.5500222321033,56.5352694304381,,,,,,,25.880663136218942,25.954328258721233,0.08222713635714628,0.037641862118189484,684.6153846153846,68.42769230769218,0.09995056179775262,92.30769230769226,5.780346820809249,45.086705202312146,13.307692307692307,78.125,,,0.027572186714900263,0.007479030333953788,0.0006805852238254624,3.686599128997547,0.7716427653015957,0.2093101903139166,-4.8956521298971865,2021-09-23 21:16:48,2021-09-23 21:16:48.000,0.76685566,0.14146557,0.5720327,0.39977643,0.56908923,0.22174165,-0.2378462,0.34849668,0.9492212,0.60693544,0.47039703,0.7333261,1.2868022,1.1821908,0.96333456,1.0353325999999998,0.95979106,1.2115893,0.74779546,0.9481234000000001,763.95605,792.5641,763.1502,800.6227,675.3113400000002,-0.62890625,0.01788330078125,0.8028564453125,-8.01513671875,-6.003875732421875,14.3853759765625,73.0,97.0,-24.0
687.3721654068477,56.39806582152907,,,,,,,25.933778970721093,26.00915012006406,0.08204880654157376,0.037728875674462606,684.6153846153846,68.42769230769218,0.09995056179775262,92.30769230769226,5.780346820809249,45.664739884393065,13.307692307692307,78.125,,,0.02491299517588937,0.007123677429823238,0.0006252028823239037,3.4972098921255537,0.7627545817145306,0.21810374705618235,-4.944331193942126,2021-09-23 21:16:49,2021-09-23 21:16:49.001,0.058010425,0.14146557,0.5720327,0.521573,0.4042913,0.22174165,-0.2378462,0.2183934,0.8786108,0.60693544,0.47039703,0.91868293,1.1267006000000002,1.1821908,0.96333456,1.0025901,0.87434167,1.2115893,0.74779546,1.0234245000000002,706.337,849.7802,746.63007,691.4286,701.9048,-0.606689453125,0.02899169921875,0.8128662109375,1.487884521484375,-5.854339599609375,-0.949554443359375,72.0,100.0,-28.0
687.1943085815917,56.28441614383018,,,,,,,25.774103082491433,25.849317184040032,0.08190465992072085,0.037506281353945806,684.6153846153846,68.42769230769218,0.09995056179775262,92.30769230769226,5.780346820809249,45.086705202312146,13.307692307692307,78.125,,,0.022753469054370427,0.0068046176678312476,0.0005734026149070883,3.3438277012883746,0.7551392100073907,0.22583077761944376,-4.990153828464252,2021-09-23 21:16:50,2021-09-23 21:16:50.000,0.053741794,0.14146557,0.5720327,0.6706683000000001,0.39602129999999997,0.22174165,-0.2378462,0.4131733,0.67112184,0.60693544,0.47039703,0.7648119000000001,1.1482511999999998,1.1821908,0.96333456,0.92884934,0.71666753,1.2115893,0.74779546,1.0492905000000001,847.3626,829.2308,784.90845,810.293,863.4798599999997,-0.5697021484375,0.0433349609375,0.8541259765625,-5.27862548828125,-7.080535888671875,9.7198486328125,50.0,100.0,-50.0
686.8830591373944,56.25204403704482,,,,,,,25.827438065721267,25.90094387245148,0.08189464463963866,0.03760092452732208,684.6153846153846,68.42769230769218,0.09995056179775262,92.30769230769226,5.780346820809249,45.664739884393065,13.307692307692307,78.125,,,0.020682846357438712,0.0064347240224751955,0.000513756660242615,3.2142553876743887,0.7485288827199792,0.2328778495916476,-5.04604632580396,2021-09-23 21:16:51,2021-09-23 21:16:51.000,0.8931416999999999,0.14146557,0.5720327,0.47628134,0.7517351,0.22174165,-0.2378462,0.62026566,0.869608,0.60693544,0.47039703,0.68560606,1.1225448,1.1821908,0.96333456,1.2493756,0.7792574000000001,1.2115893,0.74779546,1.1333823,796.5934,795.78754,786.5201400000003,790.54944,644.2857,-0.57501220703125,0.03912353515625,0.852783203125,-16.67327880859375,-5.196380615234375,29.750213623046875,32.0,92.0,-60.0
686.1626878868257,56.22320941249157,,,,,,,25.812381331373476,25.883467489226238,0.08193859911800525,0.03761845665328703,684.6153846153846,68.42769230769218,0.09995056179775262,90.38461538461536,5.747126436781608,45.977011494252864,12.428571428571427,78.125,,,0.01987268121358323,0.006261616140521562,0.00048379373807200195,3.1737303545291957,0.7465855137682627,0.23523911308432954,-5.073316957777728,2021-09-23 21:16:52,2021-09-23 21:16:52.000,0.9694885,0.14146557,0.5720327,0.40974092,0.8459040000000001,0.22174165,-0.2378462,0.62272245,1.2722156,0.60693544,0.47039703,1.024298,1.3275464,1.1821908,0.96333456,1.3527354999999999,1.1740981000000001,1.2115893,0.74779546,1.3076273,785.7143,759.12085,792.5641,790.14655,558.46155,-0.5118408203125,-0.02630615234375,0.8775634765625,2.70660400390625,-3.6785888671875,-2.295379638671875,19.0,85.0,-66.0
685.1489550911516,56.76102140557185,,,,,,,26.17803784877066,26.23914023412045,0.0828447901493485,0.038207805257891636,684.6153846153846,68.42769230769218,0.09995056179775262,84.61538461538464,6.358381502890174,46.82080924855491,12.357142857142858,78.125,,,0.0188721448810501,0.005935619528538695,0.0004304729103700456,3.1794734804534013,0.7477600215022021,0.2351836007122693,-5.1267838707678495,2021-09-23 21:16:53,2021-09-23 21:16:53.007,1.0143011999999998,0.14146557,0.5720327,0.5320146,0.9109305,0.22174165,-0.2378462,0.74552375,1.2722156,0.60693544,0.47039703,0.98251903,1.5148197,1.1821908,0.96333456,1.2709768,1.4187557,1.2115893,0.74779546,1.1653318000000001,841.3186599999997,841.3186599999997,811.5018299999997,863.8828,711.9780000000003,-0.5555419921875,-0.0062255859375,0.86578369140625,-8.097381591796875,-2.190704345703125,18.086395263671875,13.0,76.0,-63.0
683.7312113174182,57.38453894137104,,,,,,,26.089162289333782,26.15257788957755,0.08392850580976417,0.0381570445483467,676.9230769230769,57.02307692307691,0.08423863636363635,84.61538461538464,6.321839080459771,46.55172413793103,12.428571428571427,78.125,,,0.018599972795521686,0.005723440761562693,0.0003997125691627149,3.2497886446968773,0.7523309431235391,0.2315014991363269,-5.163185122696398,2021-09-23 21:16:54,2021-09-23 21:16:54.000,0.84401953,0.14146557,0.5720327,0.44246179999999996,0.6709596999999999,0.22174165,-0.2378462,0.22506641,0.7221505,0.60693544,0.47039703,0.5725365,1.4529442,1.1821908,0.96333456,1.3586401000000001,1.0674806000000001,1.2115893,0.74779546,1.0087985000000002,772.8205,818.7546,803.8461,755.8974599999997,588.6813400000002,-0.55364990234375,0.01806640625,0.86456298828125,1.614990234375,-4.852447509765625,-3.36456298828125,20.0,63.0,-43.0
682.6813186813188,57.69064879093648,,,,,,,26.124964549247704,26.197322707801305,0.08450597257058817,0.03826816969257519,676.9230769230769,57.02307692307691,0.08423863636363635,84.61538461538464,6.285714285714287,46.28571428571429,12.5,78.125,,,0.01855564067758977,0.005501937278937512,0.0003725228612915865,3.3725649233815114,0.7595400778721153,0.22521140293144015,-5.202655016228935,2021-09-23 21:16:55,2021-09-23 21:16:55.006,0.98383707,0.4247852,0.5720327,0.83603835,0.729333,0.36170372,-0.2378462,0.45403495,0.82443666,0.6131502,0.47039703,0.9180386,1.377054,1.1243722,0.96333456,1.3803767,1.1152706000000001,1.1412396,0.74779546,1.0208845,792.5641,811.0989,801.02563,750.65936,661.2088,-0.5535888671875,0.018310546875,0.85455322265625,0.530853271484375,-3.94775390625,-0.31402587890625,23.0,69.0,-46.0
682.5494505494505,57.67720740449567,,,,,,,26.33241169352889,26.40747681691792,0.08450260615998689,0.03857949291781185,676.9230769230769,57.02307692307691,0.08423863636363635,84.61538461538464,6.285714285714287,46.85714285714286,12.5,78.125,,,0.018909824765032425,0.0053324424747653535,0.000353332887960924,3.546184483849406,0.7688295738590544,0.21680473121479707,-5.233945895344026,2021-09-23 21:16:56,2021-09-23 21:16:56.008,0.783069,0.51582766,0.5720327,0.9147562,0.9248771000000001,0.4396441,-0.2378462,0.6888962,0.8182765000000001,0.61551046,0.47039703,0.9014825999999999,1.2151129999999999,1.2390173999999998,0.96333456,1.1724728000000002,1.132196,1.0105209000000002,0.74779546,1.0706296,843.7362699999999,803.0403,826.0073,889.2674,912.2344400000001,-0.57550048828125,0.014404296875,0.841796875,1.846771240234375,-3.21502685546875,1.009368896484375,28.000000000000004,63.0,-35.0
682.2723253757738,57.774082616431244,,,,,,,26.363037532161457,26.439563201205463,0.08467891847234335,0.03864005112275592,676.9230769230769,57.02307692307691,0.08423863636363635,84.61538461538464,6.321839080459771,47.12643678160919,12.428571428571427,78.125,,,0.01966289994092656,0.0051296380074126865,0.00033642616979321,3.8331944500786,0.7824795263541438,0.2041324896361829,-5.2727201861463815,2021-09-23 21:16:57,2021-09-23 21:16:57.003,0.6692473000000001,0.3631199,0.5720327,0.9753063,0.9569638,-0.25226453,-0.2378462,0.76491445,0.7592721,0.35772659999999995,0.47039703,0.8052654,1.1883149,1.3796312,0.96333456,1.0931318,1.1519852,0.99815387,0.74779546,1.1082598999999995,792.5641,803.0403,785.7143,827.2161,945.2747,-0.58026123046875,0.0029296875,0.837158203125,1.024322509765625,-2.355194091796875,-1.92901611328125,27.0,53.0,-26.0
683.0329670329671,58.176846150739,,,,,,,26.900963509142073,26.97145854967075,0.0851742872726245,0.03938457557326611,676.9230769230769,57.02307692307691,0.08423863636363635,84.61538461538464,6.857142857142858,48.0,12.5,78.125,,,0.02070478168772787,0.005030825952768647,0.0003322955261244032,4.115582984208244,0.7942634110379714,0.1929892834345975,-5.292171103028909,2021-09-23 21:16:58,2021-09-23 21:16:58.006,0.6692473000000001,0.3631199,0.5720327,0.9753063,0.9569638,-0.25226453,-0.2378462,0.76491445,0.7592721,0.35772659999999995,0.47039703,0.8052654,1.1883149,1.3796312,0.96333456,1.0931318,1.1519852,0.99815387,0.74779546,1.1082598999999995,804.2491,802.6374,787.326,811.5018299999997,655.56775,-0.57611083984375,-0.002197265625,0.84332275390625,1.734619140625,-3.09539794921875,-0.37384033203125,29.0,55.00000000000001,-26.00000000000001
683.6870026525199,59.332589970404605,,,,,,,26.876985255475102,26.951313874599773,0.08678326447659566,0.03931182712440005,676.9230769230769,62.725384615384634,0.09266250000000004,90.38461538461536,6.896551724137932,47.70114942528736,12.428571428571427,78.125,,,0.022547949284119826,0.004979449255024223,0.00033839181737959934,4.52820143942006,0.8091623813871526,0.1786939897026278,-5.302435985421849,2021-09-23 21:16:59,2021-09-23 21:16:59.001,0.6692473000000001,0.3631199,0.5720327,0.60189587,0.9569638,-0.25226453,-0.2378462,0.53085536,0.7592721,0.35772659999999995,0.47039703,0.42929575,1.1883149,1.3796312,0.96333456,1.1070778000000001,1.1519852,0.99815387,0.74779546,1.0966593999999998,784.90845,784.1025400000003,805.05493,781.685,918.6813400000001,-0.57440185546875,-0.001953125,0.84417724609375,4.0972900390625,-3.33465576171875,-3.409423828125,32.0,50.0,-18.0
684.0406719717065,59.93357684944209,,,,,,,26.896067249540568,26.97233395328185,0.08761697850025076,0.039319397737000425,676.9230769230769,62.725384615384634,0.09266250000000004,90.38461538461536,6.896551724137932,47.70114942528736,12.428571428571427,78.125,,,0.024104813575185288,0.004921710515486475,0.00034759955096083965,4.897649607659361,0.8206138800689528,0.16755259069281048,-5.3140991431503695,2021-09-23 21:17:00,2021-09-23 21:17:00.046,0.6692473000000001,0.3631199,0.5720327,0.7278375,0.9569638,-0.25226453,-0.2378462,0.4789282999999999,0.7592721,0.35772659999999995,0.47039703,0.45602214,1.1883149,1.3796312,0.96333456,1.1198301000000002,1.1519852,0.99815387,0.74779546,1.0690098999999995,782.49084,797.3993,776.04395,798.20514,887.6557,-0.5570068359375,6.103515625e-05,0.85992431640625,2.6019287109375,-0.9869384765625,0.95703125,35.0,47.0,-12.0
684.0373499333037,60.56367694965636,,,,,,,26.897508943023524,26.969739408958763,0.0885385526909628,0.03932169631621159,676.9230769230769,57.02307692307691,0.08423863636363635,84.61538461538464,6.9364161849710975,47.39884393063584,12.357142857142858,78.125,,,0.025594903422924937,0.004836002389995386,0.000359167216108295,5.292574601674123,0.8312712801555969,0.15706368690441375,-5.331666852020576,2021-09-23 21:17:01,2021-09-23 21:17:01.001,0.6692473000000001,0.123892136,0.5720327,1.0222485000000001,0.9569638,0.35186958,-0.2378462,0.6410616,0.7592721,0.70819956,0.47039703,0.37326205,1.1883149,1.317925,0.96333456,1.0020406,1.1519852,1.4055935,0.74779546,0.89267355,788.9377400000003,802.6374,735.34796,754.6886599999997,655.56775,-0.55780029296875,-0.00152587890625,0.8533935546875,4.88983154296875,-3.409423828125,-5.644989013671875,37.0,48.0,-11.0
684.5269672855882,60.73276765556453,,,,,,,26.58911206473968,26.661781983984852,0.08872224259680116,0.03884304539553162,676.9230769230769,62.725384615384634,0.09266250000000004,90.38461538461536,6.896551724137932,47.70114942528736,12.428571428571427,78.125,,,0.0277125890253058,0.00477274590953216,0.0003823540152243767,5.806424551107581,0.8431559963772032,0.14521087615206685,-5.344833477336198,2021-09-23 21:17:02,2021-09-23 21:17:02.005,0.13709821,0.123892136,0.5720327,0.9094228999999999,0.22596893,0.35186958,-0.2378462,0.45639637,0.8893572,0.70819956,0.47039703,0.9967016,1.0842128999999998,1.317925,0.96333456,1.0460620999999999,0.6801444000000001,1.4055935,0.74779546,1.0564038999999998,831.6484,799.81683,820.3663,840.5128,1003.69965,-0.55706787109375,-0.008056640625,0.85540771484375,6.11602783203125,-4.987030029296875,-5.630035400390625,38.0,41.0,-3.0
685.1458885941645,60.80929842246597,,,,,,,26.646935501059648,26.716992061120447,0.08875379599407537,0.03889235262833717,676.9230769230769,68.42769230769235,0.10108636363636372,92.30769230769226,6.896551724137932,48.27586206896552,13.384615384615385,78.125,,,0.02976124322894975,0.004784253561147735,0.0004102115547630582,6.220665951035022,0.8513986595647255,0.13686615971125507,-5.342425261826207,2021-09-23 21:17:03,2021-09-23 21:17:03.020,0.25124505,0.123892136,0.27415517,0.6251408,0.31731266,0.35186958,-0.17941986,0.28433200000000003,0.9093929000000001,0.70819956,0.37913108,1.0284274,1.0231934999999999,1.317925,0.9343101999999999,1.095807,0.76364714,1.4055935,0.84735376,0.93364066,823.1868,782.0879,809.4872,790.54944,635.0183,-0.5572509765625,0.00689697265625,0.84808349609375,19.163055419921875,3.30474853515625,-14.093780517578125,43.0,31.0,12.0
685.9416445623341,60.594210724828145,,,,,,,26.8005214155974,26.87461755206078,0.08833726776202712,0.039071139109358936,680.7692307692307,62.725384615384634,0.09213898305084747,92.30769230769226,6.896551724137932,48.85057471264368,14.5,78.125,,,0.03191905547098175,0.004818749819841111,0.0004438519232144112,6.623928750057878,0.8584624210599006,0.12960018947250898,-5.335240758039693,2021-09-23 21:17:04,2021-09-23 21:17:04.001,0.3159628,0.123892136,0.27422786,0.122548744,0.42153820000000003,0.35186958,-0.112795815,0.03887869,0.7309513000000001,0.70819956,0.37345952,0.8858225000000001,1.0610151,1.317925,0.94904053,1.1681365,0.8352976000000001,1.4055935,0.8627763,0.7088960999999999,821.5751,807.47253,778.0586,804.65204,711.5751,-0.57012939453125,0.037841796875,0.8294677734375,18.123779296875,1.338348388671875,-3.1103515625,43.0,28.000000000000004,14.999999999999995
686.3395225464192,60.40603970825406,,,,,,,26.8005214155974,26.87461755206078,0.08801189167154312,0.03904848917364336,684.6153846153846,68.42769230769218,0.09995056179775262,92.30769230769226,6.896551724137932,48.85057471264368,14.5,78.125,,,0.03402561058829197,0.004861034145816378,0.00048096763139114716,6.999665002883372,0.8643046540996455,0.1234780026963594,-5.326504076500705,2021-09-23 21:17:05,2021-09-23 21:17:05.020,0.3159628,0.123892136,0.13659649999999998,1.0750879999999998,0.42153820000000003,0.35186958,0.008573014,1.0185331,0.7309513000000001,0.70819956,0.056097034000000004,1.4388653999999999,1.0610151,1.317925,0.9686601999999999,1.3155754,0.8352976000000001,1.4055935,0.9128443000000002,0.9680234000000001,801.02563,805.05493,809.4872,836.4835,695.8608,-0.57684326171875,0.041259765625,0.83941650390625,24.28466796875,1.457977294921875,-21.5631103515625,39.0,27.0,12.0
687.2832369942198,59.90448899876773,,,,,,,26.827071350761372,26.900014482544503,0.08716128340443076,0.03903350162894631,684.6153846153846,68.42769230769218,0.09995056179775262,92.30769230769226,6.9364161849710975,48.554913294797686,14.416666666666664,78.125,,,0.03663975399393948,0.004950345645303443,0.000533138233754454,7.401453680047742,0.8698228304388484,0.117520539618271,-5.308297877505325,2021-09-23 21:17:06,2021-09-23 21:17:06.002,0.3159628,0.123892136,0.19346404,1.3814497,0.42153820000000003,0.35186958,0.048058647999999995,1.2612535,0.7309513000000001,0.70819956,0.04914589,1.4375255,1.0610151,1.317925,0.97842306,1.4370878999999999,0.8352976000000001,1.4055935,0.9221771000000001,0.9937802,850.9889999999997,795.38464,824.7985,809.4872,782.49084,-0.55133056640625,0.015869140625,0.85333251953125,4.553375244140625,-2.459869384765625,-3.342132568359375,36.0,30.0,6.0
688.1280569141841,59.21637738255792,,,,,,,26.614640088028146,26.69200806189908,0.08605429874216385,0.038676870998950175,684.6153846153846,68.42769230769218,0.09995056179775262,84.61538461538453,6.9364161849710975,47.39884393063584,14.416666666666664,78.125,,,0.038958504830857915,0.005096100530424144,0.0005830191532454963,7.644767719606862,0.8727728066751997,0.1141660333821212,-5.279279633586577,2021-09-23 21:17:07,2021-09-23 21:17:07.010,0.6131395000000001,0.123892136,0.6682569,0.6190091999999999,0.35332307,0.35186958,0.07366189999999999,-0.03011508,0.36773822,0.70819956,0.15233663,0.45066506,1.0094030999999999,1.317925,1.0626788,0.94135296,0.8616386999999999,1.4055935,0.72611886,0.70423454,813.1135,799.0110000000003,830.4396,781.685,740.18317,-0.5545654296875,0.01727294921875,0.865966796875,-2.100982666015625,-3.42437744140625,6.616973876953125,31.0,31.0,0.0
687.5500222321033,59.401691010306365,,,,,,,26.341795468863967,26.41227041742582,0.08639617349943672,0.03831255125750182,684.6153846153846,68.42769230769218,0.09995056179775262,92.30769230769226,6.358381502890174,47.39884393063584,13.307692307692307,78.125,,,0.04062730887220705,0.005195041869536062,0.0006322925388086382,7.820400661339661,0.8745586232757854,0.1118304114006827,-5.260050594879967,2021-09-23 21:17:08,2021-09-23 21:17:08.005,0.7708086999999999,0.123892136,0.62191325,0.33566597,0.29816020000000004,0.35186958,0.24529365,0.110697635,0.5220802999999999,0.70819956,0.5045661,0.39108124,0.9541283000000002,1.317925,1.0584755,0.95752037,0.9148784,1.4055935,0.7542225,0.72171557,778.46155,807.47253,787.7289400000003,781.28204,991.6117,-0.57855224609375,0.01605224609375,0.83984375,-1.15142822265625,-2.026214599609375,2.1832275390625,28.000000000000004,32.0,-3.999999999999997
686.9719875500223,59.46519544611103,,,,,,,26.31566272883082,26.383920024208702,0.08656131039372407,0.03830674788164435,684.6153846153846,68.42769230769218,0.09995056179775262,92.30769230769226,6.358381502890174,47.39884393063584,13.307692307692307,78.125,,,0.04076907342181978,0.0051983581814554385,0.0006554958544201753,7.842682631462162,0.8744425896210127,0.11149789309502953,-5.259412437584827,2021-09-23 21:17:09,2021-09-23 21:17:09.001,0.5268503000000001,0.123892136,0.6690039000000001,0.7440472,0.48275924,0.35186958,0.67673486,0.89665264,0.85164255,0.70819956,0.64904124,0.9332195,1.0477661,1.317925,1.0148511,1.0632141000000002,0.77954787,1.4055935,0.8337078000000001,0.8412624,844.9450699999999,826.8132,834.4689,804.65204,715.2015,-0.5894775390625,0.010986328125,0.83477783203125,10.639495849609377,-0.306549072265625,-13.8470458984375,33.0,25.0,8.0
685.9416445623342,59.466070664586226,,,,,,,26.089162289333768,26.16109263310009,0.08669260881882834,0.038034084234643585,676.9230769230769,57.02307692307691,0.08423863636363635,84.61538461538464,6.321839080459771,46.55172413793103,13.384615384615385,78.125,,,0.0393840935020193,0.005080144372942186,0.0006540608267653335,7.752553984840759,0.8729073266344581,0.11259609779452415,-5.282415597925074,2021-09-23 21:17:10,2021-09-23 21:17:10.007,0.45451736,0.123892136,0.6690039000000001,0.41606350000000003,0.45203987,0.35186958,0.67673486,0.56902874,1.0241243,0.70819956,0.64904124,1.0242072,1.092194,1.317925,1.0148511,1.1408428999999998,0.89942056,1.4055935,0.8337078000000001,0.9223449,780.07324,803.8461,791.75824,811.5018299999997,757.1062,-0.61474609375,0.01263427734375,0.81903076171875,-8.59832763671875,-5.30853271484375,10.826416015625,43.0,15.0,28.0
685.6321839080459,59.49232776304386,,,,,,,25.61284949607151,25.68704271713501,0.08677003378683681,0.037356544948168,676.9230769230769,57.02307692307691,0.08423863636363635,84.61538461538464,5.747126436781608,46.55172413793103,13.384615384615385,78.125,,,0.038137191068989926,0.005049592049472793,0.0006535626128208521,7.552529134105331,0.8699108191972129,0.11518139205434025,-5.288447821240548,2021-09-23 21:17:11,2021-09-23 21:17:11.000,0.35553809999999997,0.123892136,0.6690039000000001,0.3568088,0.20043577,0.35186958,0.67673486,0.17812589,0.95559406,0.70819956,0.64904124,0.9881333000000001,1.1892546,1.317925,1.0148511,1.137063,1.1220896999999999,1.4055935,0.8337078000000001,1.1851771,847.3626,811.0989,801.8315,808.6813400000003,808.2784,-0.58917236328125,0.008056640625,0.8359375,2.7215576171875,-3.461761474609375,-0.01495361328125,54.0,0.0,54.0
686.2068965517243,59.33283844671608,,,,,,,25.712808960755805,25.782781381269327,0.08646494044998826,0.037470927631252184,676.9230769230769,57.02307692307691,0.08423863636363635,84.61538461538464,5.747126436781608,47.12643678160919,14.5,78.125,,,0.036953703111926674,0.005157828668935783,0.0006568033909741593,7.1645852322487755,0.8640435257405358,0.12059923885773008,-5.267239588643921,2021-09-23 21:17:12,2021-09-23 21:17:12.003,0.83082753,0.123892136,0.6690039000000001,0.55191314,0.47638303,0.35186958,0.67673486,0.25564876,0.34598255,0.70819956,0.64904124,0.46892938,1.0508612,1.317925,1.0148511,0.97370434,0.8616469000000001,1.4055935,0.8337078000000001,1.1203290000000001,813.5165,1328.0586,820.3663,774.0293,738.5714,-0.5941162109375,0.01373291015625,0.83868408203125,1.039276123046875,-2.415008544921875,4.85992431640625,59.0,2.0,57.0
686.7496665184527,59.18661691311598,,,,,,,25.960296134060226,26.03605414521592,0.08618368497092767,0.03780168728099802,676.9230769230769,57.02307692307691,0.08423863636363635,84.61538461538464,5.780346820809249,47.39884393063584,14.416666666666664,78.125,,,0.036051111199187434,0.005326271465524345,0.0006572265430536493,6.768545582503159,0.8576530596727279,0.1267115732942362,-5.235103823019932,2021-09-23 21:17:13,2021-09-23 21:17:13.000,0.8559389000000001,0.123892136,0.6690039000000001,0.5908391,0.50878155,0.35186958,0.67673486,0.26922035,0.34598255,0.70819956,0.64904124,0.44865978,0.97707963,1.317925,1.0148511,0.9401754999999999,0.83375704,1.4055935,0.8337078000000001,1.114233,793.36993,752.674,784.5055,815.9341,796.1905,-0.59307861328125,0.02227783203125,0.83135986328125,2.998199462890625,-2.34771728515625,-2.19818115234375,37.0,0.0,37.0
686.8385949310805,59.18332420385514,,,,,,,26.16489296325757,26.241133641166073,0.08616773233279615,0.038094674871733215,684.6153846153846,68.42769230769218,0.09995056179775262,84.61538461538464,5.780346820809249,47.97687861271676,14.416666666666664,78.125,,,0.033660754975600456,0.005418049733156028,0.0006294092484613053,6.212706902561594,0.8477025688404682,0.13644657347201547,-5.218019356115142,2021-09-23 21:17:14,2021-09-23 21:17:14.014,0.8559389000000001,0.123892136,0.6690039000000001,0.5908391,0.50878155,0.35186958,0.67673486,0.26922035,0.34598255,0.70819956,0.64904124,0.44865978,0.97707963,1.317925,1.0148511,0.9401754999999999,0.83375704,1.4055935,0.8337078000000001,1.114233,809.8901400000003,664.0293,799.81683,838.4981700000003,715.2015,-0.59246826171875,0.0474853515625,0.82940673828125,-4.35150146484375,2.355194091796875,6.587066650390625,10.0,21.0,-11.0
687.0164517563362,59.17633498934287,,,,,,,26.374424981519894,26.4500617031536,0.08613525169311508,0.0383898011671984,684.6153846153846,68.42769230769218,0.09995056179775262,84.61538461538464,5.780346820809249,48.554913294797686,14.416666666666664,78.125,,,0.031341054147158515,0.00544352784085148,0.0005937575018370581,5.757489456002512,0.8384817136050565,0.14563321739667132,-5.2133279281431255,2021-09-23 21:17:15,2021-09-23 21:17:15.002,0.8559389000000001,0.123892136,0.6690039000000001,0.5908391,0.50878155,0.35186958,0.67673486,0.26922035,0.34598255,0.70819956,0.64904124,0.44865978,0.97707963,1.317925,1.0148511,0.9401754999999999,0.83375704,1.4055935,0.8337078000000001,1.114233,786.9231,722.0513,794.9817,796.1905,658.7912,-0.552490234375,-0.01116943359375,0.84295654296875,8.860015869140625,4.366455078125,-6.691741943359375,0.0,56.99999999999999,-56.99999999999999
687.3121131741823,58.96003024864913,,,,,,,26.285078650196628,26.35896400504741,0.08578348776126861,0.03824329317987057,684.6153846153846,68.42769230769218,0.09995056179775262,84.61538461538464,5.747126436781608,48.27586206896552,14.5,78.125,,,0.02929643916041985,0.005504478367612125,0.0005582344303648409,5.322291633081451,0.8285390779419631,0.15567337061953954,-5.20219326940756,2021-09-23 21:17:16,2021-09-23 21:17:16.031,0.8559389000000001,0.123892136,1.1340803,0.97921365,0.50878155,0.35186958,1.2785183999999998,0.8723207000000001,0.34598255,0.70819956,1.3827649,1.0231146,0.97707963,1.317925,0.86294806,1.1210299,0.83375704,1.4055935,0.6623352,1.0478485,828.0219999999997,736.1539,803.0403,788.5348,646.7033,-0.6060791015625,0.00531005859375,0.8260498046875,-5.7122802734375,-2.699127197265625,3.648681640625,0.0,76.0,-76.0
688.0391285015562,58.87204150632697,,,,,,,26.361378023025985,26.4345407046319,0.08556496144999957,0.03831377741617257,684.6153846153846,57.02307692307691,0.08329213483146065,76.9230769230769,5.780346820809249,48.554913294797686,14.416666666666664,171.875,,,0.026963405376979336,0.005574087355370543,0.0005108854350728187,4.8372771465449915,0.8158768106677744,0.16866447506538088,-5.189626678109313,2021-09-23 21:17:17,2021-09-23 21:17:17.005,0.44463465,0.123892136,1.0595629,0.79369354,0.44396743,0.35186958,1.1417438999999998,0.76932347,0.9273886999999998,0.70819956,1.3801243,1.1859614,1.1067431,1.317925,0.59413743,1.1470001,0.9030985,1.4055935,0.29228735,1.0467870000000001,794.57874,751.0622599999997,807.0696,761.9414,678.5348,-0.6085205078125,-0.002197265625,0.804443359375,-1.099090576171875,4.029998779296875,-4.957122802734375,0.0,100.0,-100.0
688.172521120498,58.7675758307234,,,,,,,26.878316996988765,26.956794001940864,0.08539657429947464,0.03905752725090633,684.6153846153846,57.02307692307691,0.08329213483146065,76.9230769230769,6.358381502890174,49.132947976878604,14.416666666666664,171.875,,,0.02521086190661141,0.005587010007554795,0.00046992812622621415,4.512406792277283,0.8062883181433769,0.17868254243462525,-5.1873110172851815,2021-09-23 21:17:18,2021-09-23 21:17:18.000,0.48513263,0.123892136,0.7583879,0.9539875,0.68694997,0.35186958,0.566308,0.7361247,1.0838098999999999,0.70819956,0.7717113,1.2350842,1.1560601000000001,1.317925,0.64181525,1.1610789,0.91437685,1.4055935,0.3782228,1.03514,781.685,740.58606,803.0403,803.8461,877.1795,-0.56561279296875,-0.0618896484375,0.81011962890625,-16.26953125,-5.14404296875,8.545989990234375,1.0,89.0,-88.0
688.0835927078701,58.83142674095094,,,,,,,26.90390321601128,26.982305804526078,0.08550040629428024,0.03909975982734047,684.6153846153846,57.02307692307691,0.08329213483146065,76.9230769230769,6.358381502890174,49.132947976878604,14.416666666666664,78.125,,,0.023653719321012498,0.005562634479218952,0.0004286081942541521,4.252251232645024,0.7979001398420559,0.1876418151675716,-5.191683455742653,2021-09-23 21:17:19,2021-09-23 21:17:19.003,1.1262796,0.123892136,0.9262781999999999,1.0945216,1.2241676000000001,0.35186958,0.74337035,0.86990744,0.9918132,0.70819956,0.8656398999999999,0.7552724000000001,1.0449022,1.317925,0.9667013000000001,1.0647408999999999,1.0466365,1.4055935,0.71583027,0.85673887,773.22345,812.71063,778.0586,760.7326,771.2088,-0.612060546875,-0.06341552734375,0.82794189453125,10.63201904296875,-4.658050537109375,-17.563018798828125,6.0,70.0,-64.0
687.8168074699868,59.07419155646912,,,,,,,26.903903216011287,26.981858436925027,0.0858865193680904,0.03911492554968606,684.6153846153846,68.42769230769218,0.09995056179775262,84.61538461538464,6.358381502890174,49.132947976878604,14.416666666666664,171.875,,,0.022061521945271587,0.005482145583195092,0.00037955727715949353,4.024249558949826,0.7900778688293364,0.1963292428204965,-5.20625872486987,2021-09-23 21:17:20,2021-09-23 21:17:20.012,0.9502888,0.123892136,0.9262781999999999,1.0996758999999998,1.0002216,0.35186958,0.74337035,0.9241937,0.9948381,0.70819956,0.8656398999999999,0.7568941,1.0317806999999999,1.317925,0.9667013000000001,1.0486799999999998,1.0819372999999999,1.4055935,0.71583027,0.87882537,853.8095,831.2454,812.3077,848.9743699999997,760.7326,-0.649658203125,-0.03607177734375,0.7578125,-11.282501220703125,3.5888671875,9.727325439453123,10.0,53.0,-43.0
687.5055580257891,59.43572685138728,,,,,,,26.859111337518225,26.93719618473608,0.086451267422565,0.039067482471917284,684.6153846153846,68.42769230769218,0.09995056179775262,84.61538461538464,6.358381502890174,49.132947976878604,14.416666666666664,171.875,,,0.021175353768803144,0.005402048394094607,0.0003451546422878157,3.91987487412211,0.7865283346611622,0.20065138809751215,-5.220977065100451,2021-09-23 21:17:21,2021-09-23 21:17:21.023,0.6629284000000001,0.123892136,0.9262781999999999,1.1387101,0.47134823,0.35186958,0.74337035,0.9524158000000001,0.69160545,0.70819956,0.8656398999999999,0.71594936,1.1209468999999999,1.317925,0.9667013000000001,1.0300877,1.0641555,1.4055935,0.71583027,0.88411146,837.6923,810.293,800.6227,833.663,838.9011,-0.6534423828125,-0.0301513671875,0.7655029296875,1.734619140625,-5.18890380859375,0.800018310546875,21.0,39.0,-18.0
688.0391285015562,58.82527463989555,,,,,,,27.063269040681227,27.140470023126998,0.08549699021915799,0.03933390983100173,684.6153846153846,57.02307692307691,0.08329213483146065,76.9230769230769,6.9364161849710975,49.132947976878604,14.416666666666664,171.875,,,0.02070164698275996,0.005330262373660865,0.0003168363156337866,3.883795117676714,0.7856786520474124,0.2022966269439582,-5.234354816188381,2021-09-23 21:17:22,2021-09-23 21:17:22.001,1.1477121000000001,0.123892136,0.80973387,0.9861348,0.71166366,0.35186958,0.55160564,0.5924764,1.0849969,0.70819956,0.7160824,1.1586893999999999,1.1989436000000002,1.317925,1.0661104,1.2121001,0.9771858,1.4055935,0.91499066,0.8866665000000001,775.64105,804.65204,801.02563,807.0696,768.3883,-0.62554931640625,-0.03131103515625,0.80419921875,5.316009521484375,-3.54400634765625,-4.074859619140625,29.0,31.0,-2.000000000000004
689.1323792486583,58.07175222074961,,,,,,,27.294843428787065,27.370505781314375,0.08426792002439881,0.03960754747664864,684.6153846153846,57.02307692307691,0.08329213483146065,78.84615384615381,6.9767441860465125,50.0,14.333333333333336,171.875,,,0.020804070884002584,0.005288616937919847,0.00029154774142820027,3.9337450846242175,0.7885038334368404,0.2004460930930313,-5.242198515703869,2021-09-23 21:17:23,2021-09-23 21:17:23.025,1.1314483999999998,0.3891961,0.9253697,1.1276844,0.8657326999999999,0.5775363,0.8177038000000001,0.78716516,0.98805,0.5937880999999999,0.8628290999999999,0.99954844,1.1274135,1.2790549,0.9993185,1.1291106000000002,0.8562018,1.0371603,0.676369,0.98008335,794.57874,792.5641,784.90845,805.4579,651.9414,-0.62506103515625,-0.0247802734375,0.8001708984375,3.93280029296875,-4.418792724609375,-0.515899658203125,36.0,34.0,2.0
690.1289461983104,57.67477785938584,,,,,,,27.240651916382323,27.31396367173328,0.08357101694849478,0.03947182923777065,684.6153846153846,57.02307692307691,0.08329213483146065,84.61538461538453,6.9364161849710975,49.710982658959544,14.416666666666664,171.875,,,0.021354399811967517,0.0052752830538246144,0.00027780376681511333,4.04801023832938,0.7936229832068246,0.19605261263725315,-5.244722941566809,2021-09-23 21:17:24,2021-09-23 21:17:24.037,0.55229884,0.5179157,1.0359105,0.6915941,0.42930627,0.6013084,0.78507495,0.571195,0.8631954,0.5937880999999999,0.90502685,0.8174246999999999,1.0415622,1.2836959,0.8802774,1.0193154,0.87480855,1.0190208,0.50547117,0.8533790000000001,807.0696,825.2015,803.4432400000003,799.81683,657.98535,-0.61114501953125,-0.0093994140625,0.8143310546875,3.028106689453125,-3.970184326171875,-3.745880126953125,43.0,40.0,3.0
690.742397137746,57.821501489124394,,,,,,,27.03370369889105,27.112497408936314,0.08370921160872911,0.039137171557604634,684.6153846153846,57.02307692307691,0.08329213483146065,84.61538461538453,6.9767441860465125,48.83720930232558,14.333333333333336,132.8125,,,0.022146298323152687,0.0052399520416503385,0.00026777106261492326,4.226431491570989,0.8008346410405051,0.18948246118212367,-5.251442933047875,2021-09-23 21:17:25,2021-09-23 21:17:25.001,0.62339205,0.6697293000000001,0.8473124,0.6682733000000001,0.3308953,0.6795426,0.48490584,0.5415627,0.83104557,0.57445806,0.7011228,0.81938684,0.86466026,1.3243786,0.6164182,0.7456244000000001,0.6885929000000001,0.9285245999999999,0.5001336,0.7024857,804.2491,801.8315,807.0696,798.60803,780.07324,-0.56390380859375,-0.00811767578125,0.85052490234375,-2.16827392578125,-7.349700927734375,4.68048095703125,44.0,51.0,-7.0
690.9660107334524,57.96163686820175,,,,,,,27.03370369889105,27.112497408936314,0.08388493206297677,0.03912450580629151,684.6153846153846,57.02307692307691,0.08329213483146065,84.61538461538453,6.9767441860465125,48.83720930232558,14.333333333333336,132.8125,,,0.023378277854145157,0.005152090489633728,0.00025937947033761164,4.5376295119783805,0.8120348259070914,0.17895573531587175,-5.268352726352628,2021-09-23 21:17:26,2021-09-23 21:17:26.018,0.89397347,0.7358755,0.44606742,0.17236987,0.636627,0.7066668,0.4040391,0.28757223,1.1248286,1.043643,0.48492733,0.7878826,0.99491704,1.2525758,0.7359298000000001,1.2227527,1.0436901,0.93915045,0.5137349,1.2174582,852.1978,794.57874,765.9707,831.6484,769.59705,-0.57220458984375,-0.00128173828125,0.84857177734375,5.75714111328125,-3.529052734375,-11.70867919921875,44.0,56.99999999999999,-12.999999999999993
690.7423971377458,57.797558534762004,,,,,,,27.052896959171036,27.13140986077981,0.08367454896971696,0.039164957980386175,684.6153846153846,57.02307692307691,0.08329213483146065,84.61538461538453,6.9767441860465125,48.83720930232558,14.333333333333336,132.8125,,,0.02476673568000315,0.005098624929959721,0.00025846936877625367,4.857532377891308,0.8221642366685472,0.16925553402599344,-5.2787843971828154,2021-09-23 21:17:27,2021-09-23 21:17:27.023,1.1802878,0.8149354999999999,0.6182009,0.5944115,0.8228519,0.7556166,0.51869637,0.6225998,1.0192533000000001,1.0029064,0.47831458,0.9249144,1.1813042,1.2495120000000002,0.8214872,1.429637,1.3139610000000002,0.9574848,0.5614923,1.5070808,823.1868,799.41394,807.47253,808.6813400000003,774.0293,-0.54693603515625,-0.00286865234375,0.8717041015625,6.796417236328125,-4.044952392578125,-6.14593505859375,43.0,53.0,-10.0
690.5187835420394,57.59610414767293,,,,,,,27.052896959171036,27.13140986077982,0.08340990212059368,0.03917764093310002,684.6153846153846,57.02307692307691,0.08329213483146065,84.61538461538453,6.9767441860465125,48.83720930232558,14.333333333333336,132.8125,,,0.026346295319497164,0.005026360383605712,0.00026088580092903065,5.241624815727474,0.8328594923884558,0.15889338166468234,-5.293059138570269,2021-09-23 21:17:28,2021-09-23 21:17:28.037,0.4894229000000001,0.8149354999999999,0.16471598,0.6675583,0.10659349,0.7556166,-0.06441678,0.47946869999999997,0.33340716,1.0029064,0.50084895,0.42737606,1.0229478,1.2495120000000002,1.0108336,0.9080497,0.7328865999999999,0.9574848,1.0812620000000002,0.8493484,776.8498,750.2564,814.7253,819.9634,788.9377400000003,-0.55426025390625,-0.00543212890625,0.84808349609375,12.57598876953125,-0.082244873046875,-17.82470703125,42.0,47.0,-5.0
690.4846598488216,57.28023149255891,,,,,,,26.916687204956066,26.99512718989032,0.0829565591002415,0.038982310209251206,684.6153846153846,57.02307692307691,0.08329213483146065,76.9230769230769,6.9364161849710975,47.97687861271676,14.416666666666664,132.8125,,,0.028729732984029088,0.004941089739637937,0.0002699965371721733,5.814452782258978,0.8464655129046149,0.145579566057763,-5.3101693770414125,2021-09-23 21:17:29,2021-09-23 21:17:29.000,0.6168649,0.8149354999999999,0.7502222,0.9036765,0.33042613,0.7556166,0.65267587,0.6589411000000001,0.7905194000000001,1.0029064,0.9659118,0.9745219999999999,1.2987247,1.2495120000000002,1.0234722,1.091734,0.9671758,0.9574848,1.0488069,0.9350671999999999,776.8498,777.6557,764.35895,755.4945,779.2674,-0.5662841796875,-0.00958251953125,0.8511962890625,0.91217041015625,-1.435546875,1.816864013671875,42.0,46.0,-4.0
690.4293381037567,57.47294985828396,,,,,,,26.892534568465425,26.969099197396694,0.08324233442358007,0.038950451674497136,684.6153846153846,57.02307692307691,0.08329213483146065,78.84615384615381,6.9767441860465125,47.67441860465117,14.333333333333336,132.8125,,,0.030912846697893667,0.004870689058203466,0.0002814568716164475,6.346709126469213,0.8571427427421453,0.13505310006525995,-5.324519861505604,2021-09-23 21:17:30,2021-09-23 21:17:30.040,1.1867212,0.8149354999999999,0.9470579,1.0455775,1.0699553,0.7556166,0.85897917,0.5363981,1.0637522,1.0029064,0.9213785,0.7449802,1.3470567,1.2495120000000002,1.0374639,1.3054248,1.2760822,0.9574848,1.0382291,1.1655476999999999,709.15753,853.4066,743.4066,704.7253,707.9487,-0.5579833984375,0.00054931640625,0.85284423828125,0.7177734375,-3.06549072265625,3.745880126953125,43.0,47.0,-4.0
690.474060822898,57.47139213200597,,,,,,,27.20595558910303,27.28581847822649,0.08323468670714773,0.0394018503123482,684.6153846153846,57.02307692307691,0.08329213483146065,78.84615384615381,7.558139534883719,48.25581395348838,13.230769230769232,132.8125,,,0.033704347768408034,0.0048569466661150815,0.0002998373225941742,6.939410721461985,0.8673022695031314,0.12498212086233305,-5.327345296507503,2021-09-23 21:17:31,2021-09-23 21:17:31.001,1.2359632999999999,0.8149354999999999,0.9470579,1.0010796999999998,1.2084221000000002,0.7556166,0.85897917,0.4665942,1.0335006,1.0029064,0.9213785,0.6506616999999999,1.2235406999999998,1.2495120000000002,1.0374639,1.2912614,1.2315954,0.9574848,1.0382291,1.2024270000000001,786.5201400000003,616.08057,815.9341,786.5201400000003,767.5824,-0.51422119140625,0.0367431640625,0.8858642578125,-7.8057861328125,-4.074859619140625,16.037750244140625,31.0,65.0,-34.0
690.6180524677634,57.317365943423226,,,,,,,27.152105332715898,27.231344782011927,0.08299430595336005,0.039315661146843976,692.3076923076923,68.42769230769218,0.09883999999999983,76.9230769230769,7.514450867052022,47.97687861271676,12.357142857142858,132.8125,,,0.03677213453705792,0.0048513614633800715,0.00032205175183960686,7.579755665420529,0.8766635914311367,0.11565855551657794,-5.328495899326592,2021-09-23 21:17:32,2021-09-23 21:17:32.002,1.2359632999999999,0.8149354999999999,0.9470579,1.0010796999999998,1.2084221000000002,0.7556166,0.85897917,0.4665942,1.0335006,1.0029064,0.9213785,0.6506616999999999,1.2235406999999998,1.2495120000000002,1.0374639,1.2912614,1.2315954,0.9574848,1.0382291,1.2024270000000001,794.9817,1363.5165,765.16486,836.4835,673.2967,-0.5621337890625,0.01531982421875,0.8431396484375,1.30096435546875,-4.613189697265625,-1.18133544921875,38.0,74.0,-36.0
690.3068030235661,57.47213442717914,,,,,,,27.05691243013185,27.135762605124683,0.0832559293569893,0.039195488602490516,684.6153846153846,57.02307692307691,0.08329213483146065,76.9230769230769,7.514450867052022,47.39884393063584,12.357142857142858,117.1875,,,0.03918406740137128,0.004655525407366355,0.00033936863661557145,8.416679960412422,0.8869395322893608,0.10537878789036197,-5.3697005051559294,2021-09-23 21:17:33,2021-09-23 21:17:33.022,1.2359632999999999,0.8149354999999999,0.9470579,1.0010796999999998,1.2084221000000002,0.7556166,0.85897917,0.4665942,1.0335006,1.0029064,0.9213785,0.6506616999999999,1.2235406999999998,1.2495120000000002,1.0374639,1.2912614,1.2315954,0.9574848,1.0382291,1.2024270000000001,875.56775,56.41025500000001,881.2088,841.7216,782.0879,-0.56298828125,0.0208740234375,0.85723876953125,1.712188720703125,-2.930908203125,1.15142822265625,37.0,87.0,-50.0
690.3957314361937,57.36733800011879,,,,,,,27.031471039992194,27.110395210984954,0.08309341351340707,0.039153589469274455,684.6153846153846,57.02307692307691,0.08329213483146065,76.9230769230769,7.514450867052022,47.39884393063584,12.357142857142858,117.1875,,,0.04118271533369994,0.004533872001387914,0.00035536322592866036,9.083343182404144,0.8938782671933676,0.09840850986726446,-5.396178958131664,2021-09-23 21:17:34,2021-09-23 21:17:34.015,1.2359632999999999,0.8149354999999999,0.9470579,1.0010796999999998,1.2084221000000002,0.7556166,0.85897917,0.4665942,1.0335006,1.0029064,0.9213785,0.6506616999999999,1.2235406999999998,1.2495120000000002,1.0374639,1.2912614,1.2315954,0.9574848,1.0382291,1.2024270000000001,770.0,715.2015,819.9634,794.57874,776.8498,-0.56390380859375,-0.003662109375,0.8565673828125,5.764617919921875,-3.5888671875,-6.078643798828125,34.0,89.0,-55.0
690.742397137746,57.35281098467736,,,,,,,27.104012539863895,27.18357589583799,0.08303068006587153,0.039238958911709726,688.4615384615386,62.72538461538455,0.09110949720670382,78.84615384615381,7.558139534883719,47.67441860465117,12.285714285714285,117.1875,,,0.04376562120631503,0.0044397728592281156,0.00037786563573438014,9.85762618809377,0.9008374793172677,0.09138482857113372,-5.417152061678117,2021-09-23 21:17:35,2021-09-23 21:17:35.004,1.2359632999999999,0.8149354999999999,0.9470579,0.47310445,1.2084221000000002,0.7556166,0.85897917,0.38939983,1.0335006,1.0029064,0.9213785,0.8933844999999999,1.2235406999999998,1.2495120000000002,1.0374639,1.0674864,1.2315954,0.9574848,1.0382291,1.1464353,811.5018299999997,790.9524,825.2015,805.05493,684.57874,-0.55194091796875,-0.01068115234375,0.86480712890625,6.392669677734375,-2.923431396484375,-6.243133544921875,34.0,83.0,-49.0
691.3237924865832,56.73195610586002,,,,,,,26.905398733070307,26.98381276473269,0.08206278551733924,0.0389186644890317,688.4615384615386,62.72538461538455,0.09110949720670382,78.84615384615381,7.558139534883719,47.093023255813954,12.285714285714285,117.1875,,,0.04594354201363348,0.004425256616620256,0.0003982510474636333,10.382119274412249,0.9049874338827096,0.08716789028933042,-5.420427009747187,2021-09-23 21:17:36,2021-09-23 21:17:36.005,0.7825025999999999,0.8149354999999999,1.1532823,0.31892684,0.70543736,0.7556166,1.0036448,0.22126135,0.7363219,1.0029064,1.3051423999999998,0.9038833000000001,1.14526,1.2495120000000002,0.7465295999999999,1.2501798000000002,1.0261885,0.9574848,0.81839156,1.1204151000000002,788.1319,771.2088,795.78754,826.4103,977.50916,-0.53204345703125,-0.00860595703125,0.8743896484375,2.549591064453125,-5.62255859375,1.368255615234375,16.0,75.0,-59.0
691.6815742397139,56.54156128217043,,,,,,,26.982454925411478,27.060344791689445,0.08174507372748807,0.03900993741964312,692.3076923076923,57.02307692307691,0.08236666666666664,78.84615384615381,7.558139534883719,47.67441860465117,11.466666666666667,117.1875,,,0.04814036251767139,0.004464223584964008,0.000419911363739861,10.783591278853818,0.9078890855721722,0.08419171888983829,-5.411659968919944,2021-09-23 21:17:37,2021-09-23 21:17:37.016,0.9774398999999999,0.8149354999999999,0.97320694,0.49298525,0.92938155,0.7556166,0.8098991,0.22023903,0.8282351,1.0029064,1.3059802,0.7883543000000001,1.1359768,1.2495120000000002,0.824261,1.2460628999999999,0.94647676,0.9574848,0.84331083,1.1498928999999998,796.5934,745.0183,810.696,788.5348,736.1539,-0.5325927734375,-0.0045166015625,0.867919921875,1.92901611328125,-3.6785888671875,0.11962890625,1.0,63.0,-62.0
692.8890876565296,56.034873695695545,,,,,,,26.943954375586404,27.01766123031413,0.08087134679118006,0.0388863886812181,692.3076923076923,57.02307692307691,0.08236666666666664,84.61538461538453,6.9767441860465125,47.67441860465117,11.466666666666667,117.1875,,,0.050426586622351235,0.004571073585801942,0.00044346342538652235,11.031672467268862,0.9095520313705392,0.08244915121158586,-5.3880071813587085,2021-09-23 21:17:38,2021-09-23 21:17:38.012,0.7058019,0.8149354999999999,0.43876750000000003,0.6472189,0.5527054,0.7556166,0.29683125,0.4429206,0.83070475,1.0029064,0.36819747,0.8493693000000001,1.1606622,1.2495120000000002,0.8317062,1.2491306,1.0932456,0.9574848,0.87857836,1.0819199,769.19415,782.8938,804.2491,819.5604,777.25275,-0.5277099609375,0.00323486328125,0.8668212890625,3.48419189453125,-2.093505859375,-1.016845703125,15.0,51.0,-36.0
693.7471884840304,55.732978374492276,,,,,,,26.861597549343358,26.939996901722797,0.08033615025709788,0.038719576807282004,692.3076923076923,57.02307692307691,0.08236666666666664,80.76923076923072,7.0175438596491215,46.783625730994146,11.4,117.1875,,,0.05325472610097505,0.0047947208476775615,0.00047423943438779765,11.106950288205047,0.9099687561104788,0.08192786791139366,-5.3402397897183755,2021-09-23 21:17:39,2021-09-23 21:17:39.001,0.6731743,0.8149354999999999,0.5875345999999999,0.5222588,0.28904983,0.7556166,0.28751,0.31459504,0.6500611,1.0029064,0.17357934,0.93230504,1.08591,1.2495120000000002,0.77990997,1.2284669,1.0910514999999998,0.9574848,0.7738166999999999,0.96102214,773.22345,781.28204,786.9231,821.9780000000003,948.9011,-0.54595947265625,0.0091552734375,0.86383056640625,-4.74029541015625,-4.792633056640625,13.3685302734375,26.0,45.0,-19.0
694.1413237924866,55.58601217048791,,,,,,,26.73121016992479,26.80937443790597,0.08007881142530184,0.03850975191028402,692.3076923076923,57.02307692307691,0.08236666666666664,78.84615384615381,6.9767441860465125,45.930232558139544,11.466666666666667,117.1875,,,0.055078379940578584,0.005012469197812453,0.0004956521502693159,10.988272998189382,0.9090866574084104,0.08273244190039754,-5.295826631443153,2021-09-23 21:17:40,2021-09-23 21:17:40.030,0.6047971,0.8149354999999999,0.8644857,0.7813482,0.2634847,0.7556166,0.61144716,0.35593376,0.6019884,1.0029064,0.8206546999999998,0.9340189,0.8778063,1.2495120000000002,0.8942749,0.96111876,0.7781375,0.9574848,0.74450886,0.9659296999999999,780.07324,803.0403,818.3516,795.78754,798.20514,-0.5411376953125,0.0023193359375,0.87322998046875,2.52716064453125,-2.803802490234375,1.30096435546875,40.0,38.0,2.0
694.1520467836258,55.74908230400477,,,,,,,26.725193923601193,26.803992247723745,0.0803124943048426,0.03850048998260998,692.3076923076923,57.02307692307691,0.08236666666666664,80.76923076923072,7.0175438596491215,45.614035087719294,12.214285714285715,117.1875,,,0.05636934629354549,0.005288340365182496,0.000514560603267971,10.659175166687712,0.9066641270984328,0.0850595015955793,-5.242250812924986,2021-09-23 21:17:41,2021-09-23 21:17:41.001,0.5100858,0.8149354999999999,0.88233554,0.6249723,0.80145556,0.7556166,0.7112169,0.43087200000000003,0.8002205,1.0029064,0.7712765,0.7262398,1.0388939,1.2495120000000002,1.1748211000000002,0.88780093,0.74498117,0.9574848,0.8963697,1.0023301,834.4689,807.8755,817.1429,814.7253,703.5165,-0.5640869140625,-0.01226806640625,0.8494873046875,0.530853271484375,-2.03369140625,2.94586181640625,51.0,36.0,15.0
694.0620782726045,55.752003153309644,,,,,,,26.77073902236712,26.84978721923841,0.08032711323469269,0.03857110172190169,692.3076923076923,57.02307692307691,0.08236666666666664,80.76923076923072,7.0175438596491215,45.614035087719294,12.214285714285715,117.1875,,,0.0566521904591673,0.00550552580806514,0.0005231772086205955,10.290059920557727,0.9038191276101032,0.08783419480429183,-5.202002998733823,2021-09-23 21:17:42,2021-09-23 21:17:42.000,0.5899594,-0.037905693,0.4341728,0.062422734,0.81317765,0.6256841999999999,0.48899436,0.20768319,0.8366674999999999,0.62684995,0.85081404,0.54417396,1.006316,1.3330598999999999,0.9792542,0.91921794,0.9319214,1.182225,0.6820568,0.9057589,819.9634,808.6813400000003,793.7729,825.6044,1124.1758,-0.5638427734375,-0.01214599609375,0.8516845703125,1.4654541015625,-3.57391357421875,-0.91217041015625,48.0,38.0,10.0
694.3649373881931,55.60614986403962,,,,,,,26.75062046668788,26.827817732267075,0.0800820244080849,0.038525304240315666,692.3076923076923,57.02307692307691,0.08236666666666664,78.84615384615381,6.9767441860465125,45.930232558139544,12.285714285714285,117.1875,,,0.05509066142693368,0.005584782231782778,0.0005144549701893486,9.86442427663784,0.9003228091786563,0.09126967615443236,-5.187709838844661,2021-09-23 21:17:43,2021-09-23 21:17:43.015,0.66330284,-0.010162469,0.7000824000000001,0.017461771,0.56148064,0.6385089,0.79076976,0.3407996,1.0407377,0.43966976,0.8910449,0.774239,0.9913912,1.311093,0.97689396,1.0494426000000001,0.9703556999999999,1.1469493999999998,0.72457194,0.75727284,808.2784,803.8461,796.5934,795.38464,643.8828,-0.56585693359375,-0.0076904296875,0.8475341796875,1.136474609375,-3.63372802734375,-5.106658935546875,44.0,39.0,5.0
694.6468735942419,55.75850149405771,,,,,,,26.74472274895001,26.82369405081625,0.0802688439459204,0.03850117774311351,692.3076923076923,57.02307692307691,0.08236666666666664,80.76923076923072,7.0175438596491215,45.614035087719294,13.153846153846152,117.1875,,,0.05147166144734778,0.0055323742171223,0.0004871291342499241,9.303720143884464,0.8952968969676147,0.09622999006006352,-5.197138221566873,2021-09-23 21:17:44,2021-09-23 21:17:44.000,0.9610386999999999,-0.010162469,0.93089503,0.27449286,0.9857864,0.6385089,1.0179102,0.5674977,1.1353831,0.43966976,0.86825806,0.75330055,0.8968911,1.311093,1.0367184999999999,1.0579556,0.8477424000000001,1.1469493999999998,0.72893083,0.6956800999999999,846.5567599999997,792.1612,800.2198,830.84247,1064.1392,-0.5699462890625,-0.02520751953125,0.84637451171875,1.45050048828125,-2.34771728515625,0.142059326171875,39.0,38.0,1.0
694.4543828264757,55.69602017125316,,,,,,,27.052896959171036,27.129309128317995,0.08020112126669376,0.03895561411688978,692.3076923076923,57.02307692307691,0.08236666666666664,78.84615384615381,7.558139534883719,45.930232558139544,13.230769230769232,117.1875,,,0.04804022802782113,0.005419408510249568,0.00045928735094749286,8.864478095158182,0.8909715655064401,0.10051032400803077,-5.217768600436061,2021-09-23 21:17:45,2021-09-23 21:17:45.000,0.076595984,-0.27804070000000003,-0.062180325,-0.2101118,0.40552747,0.16586946,-0.19819342,0.11765719999999999,0.57573414,0.7030706999999999,0.5451233,0.64360386,0.63398725,1.2298876,0.7526025,0.5962387,0.7957129,0.89499444,0.5260688,0.67853236,831.6484,813.1135,809.4872,832.8571,855.82416,-0.58612060546875,-0.013671875,0.8397216796875,-5.435638427734375,-3.252410888671875,13.974151611328125,37.0,29.0,8.000000000000004
693.9721097615834,55.93552722930874,,,,,,,26.666521637846728,26.74526180414104,0.08060198161065232,0.03842592701168943,692.3076923076923,57.02307692307691,0.08236666666666664,84.61538461538453,7.0175438596491215,45.029239766081865,13.153846153846152,117.1875,,,0.04385436723295241,0.005188508335340557,0.00042316842588331936,8.452211001425317,0.8865549716916004,0.10489030284999966,-5.261309034417281,2021-09-23 21:17:46,2021-09-23 21:17:46.002,0.24350475,-0.3054223,0.43378466,0.015563569,0.56993574,0.34603676,0.13054885,0.54646593,0.9494809999999999,0.6844139,0.62870955,0.7823247,0.7660754,1.1733928,0.7269821999999999,0.9570719999999999,0.909436,0.9828424000000001,0.57062054,0.8294625,806.26373,793.7729,796.1905,813.5165,637.4359,-0.54730224609375,0.01068115234375,0.869873046875,4.65057373046875,-2.093505859375,-4.306640625,35.0,21.0,14.0
693.7835420393559,55.814138323865464,,,,,,,26.588435023245783,26.6664834722367,0.08044892238262309,0.03832381919163127,692.3076923076923,57.02307692307691,0.08236666666666664,84.61538461538453,6.9767441860465125,44.76744186046512,13.230769230769232,117.1875,,,0.04031635153115876,0.005039793955669069,0.000393147537332279,7.999603135721147,0.8812453453623378,0.1101611330476203,-5.2903900795462375,2021-09-23 21:17:47,2021-09-23 21:17:47.000,0.28535888,-0.3054223,0.58723426,0.20875344,0.63945633,0.34603676,0.21343078,0.6654975999999999,0.9494809999999999,0.6844139,0.60001445,0.6220707,0.79826695,1.1733928,0.67489606,1.1157019,0.94348377,0.9828424000000001,0.5440501,0.8900957,793.36993,816.337,803.4432400000003,794.57874,729.707,-0.56951904296875,-0.017822265625,0.841064453125,-1.218719482421875,-2.489776611328125,2.22808837890625,36.0,14.000000000000002,22.0
