HRV_MeanNN,HRV_SDNN,HRV_SDANN1,HRV_SDNNI1,HRV_SDANN2,HRV_SDNNI2,HRV_SDANN5,HRV_SDNNI5,HRV_RMSSD,HRV_SDSD,HRV_CVNN,HRV_CVSD,HRV_MedianNN,HRV_MadNN,HRV_MCVNN,HRV_IQRNN,HRV_pNN50,HRV_pNN20,HRV_HTI,HRV_TINN,HRV_ULF,HRV_VLF,HRV_LF,HRV_HF,HRV_VHF,HRV_LFHF,HRV_LFn,HRV_HFn,HRV_LnHF,Time,TimeStamp,Delta_TP9,Delta_AF7,Delta_AF8,Delta_TP10,Theta_TP9,Theta_AF7,Theta_AF8,Theta_TP10,Alpha_TP9,Alpha_AF7,Alpha_AF8,Alpha_TP10,Beta_TP9,Beta_AF7,Beta_AF8,Beta_TP10,Gamma_TP9,Gamma_AF7,Gamma_AF8,Gamma_TP10,RAW_TP9,RAW_AF7,RAW_AF8,RAW_TP10,AUX_RIGHT,Accelerometer_X,Accelerometer_Y,Accelerometer_Z,Gyro_X,Gyro_Y,Gyro_Z,Attention,Meditation,A_M
721.1655011655013,71.44876288945919,,,,,,,33.33032651084701,33.432112505316304,0.09907401667715428,0.04621730581535124,738.4615384615386,68.42769230769235,0.09266250000000006,107.69230769230774,13.333333333333336,55.75757575757577,12.692307692307693,218.75,,,0.0596293619929649,0.014967521207272575,0.0007743745866319996,3.9839169871355566,0.7911419252360282,0.19858393831766574,-4.201872678277675,2021-09-23 20:49:00,2021-09-23 20:49:00.002,0.8881468000000001,0.5916812,0.8873059999999999,0.88820535,0.69601434,0.54892004,0.5988766,0.69734967,1.1024443000000002,0.60294884,0.42115274,1.2902447,1.0042568,1.3674041000000001,0.9027671,1.0856339,0.8783126,1.1902808,0.5124282,0.964173,764.35895,810.293,794.57874,793.36993,677.7289400000002,-0.50714111328125,0.033203125,0.8895263671875,15.768585205078125,-8.097381591796875,-28.658599853515625,59.0,42.0,17.0
721.1655011655013,71.4487628894592,,,,,,,32.834092719028675,32.931296160055666,0.09907401667715428,0.04552920607816699,738.4615384615386,68.42769230769235,0.09266250000000006,107.69230769230774,12.727272727272727,55.75757575757577,12.692307692307693,218.75,,,0.05587887524272577,0.014279548424787828,0.0007407162769614517,3.913210248702668,0.7881460238655579,0.20140651122102346,-4.248926945484731,2021-09-23 20:49:01,2021-09-23 20:49:01.003,1.1765777,0.39559853,0.8956143,0.5944988,0.90046537,0.31250417,0.044082794,0.52407753,0.7432338000000001,0.7483771,0.23771459,0.5943411,0.8611593000000001,1.2598512,0.30006614,0.78920573,0.6443852,1.0145491,0.17749688,0.5114042000000001,815.5311,806.6667,811.9048,787.326,612.4542,-0.48101806640625,0.0128173828125,0.8975830078125,1.06170654296875,-1.98883056640625,2.235565185546875,54.0,38.0,16.0
721.0722610722612,71.49667407968941,,,,,,,33.38440788100927,33.48662440477662,0.09915327206370582,0.04629828338059409,738.4615384615386,68.42769230769235,0.09266250000000006,107.69230769230774,13.333333333333336,56.96969696969697,12.692307692307693,218.75,,,0.05417022200696022,0.014070247643977614,0.0007351325740618309,3.849983552361021,0.7853533751000242,0.20398876109961625,-4.263692807159445,2021-09-23 20:49:02,2021-09-23 20:49:02.001,1.1765777,0.3472574,0.61606735,0.5944988,0.90046537,-0.009031653,-0.09000095,0.52407753,0.7432338000000001,0.6644072,0.28582966,0.5943411,0.8611593000000001,1.2695896999999998,0.71162355,0.78920573,0.6443852,0.8844177,0.7173276999999999,0.5114042000000001,807.8755,803.4432400000003,800.6227,799.41394,863.0769,-0.5001220703125,0.0145263671875,0.88861083984375,1.921539306640625,-3.3197021484375,0.471038818359375,52.0,32.0,20.0
721.2121212121212,71.46262555873089,,,,,,,32.6854092710766,32.777921647392375,0.09908683375790417,0.0453201052918289,738.4615384615386,68.42769230769235,0.09266250000000006,107.69230769230774,12.727272727272727,56.96969696969697,12.692307692307693,218.75,,,0.0508607631377425,0.013452969553845373,0.0007103947641379006,3.7806346720828303,0.7821829392846994,0.20689196580154584,-4.3085554126311205,2021-09-23 20:49:03,2021-09-23 20:49:03.030,0.57612056,0.41136572,-0.012939811,0.5944988,0.630545,0.052285608,-0.110466324,0.52407753,0.52922165,0.81774956,0.19589068,0.5943411,0.9187478000000001,1.3018531,1.0436398,0.78920573,0.65962964,0.9596388000000001,0.96991825,0.5114042000000001,740.18317,774.0293,789.7436,799.81683,738.1685,-0.50384521484375,0.0208740234375,0.893798828125,2.75146484375,-2.4224853515625,0.19439697265625,50.0,34.0,16.0
722.7954971857409,70.5005993929014,,,,,,,32.818718489569896,32.904842240900265,0.09753879163248916,0.04540526140153344,738.4615384615386,68.42769230769235,0.09266250000000006,96.1538461538462,12.80487804878049,57.3170731707317,12.615384615384615,218.75,,,0.05219329081072869,0.014163337920456646,0.0007606972501127282,3.685098181223505,0.7776425840515773,0.2110235727270064,-4.257098489650434,2021-09-23 20:49:04,2021-09-23 20:49:04.001,0.57612056,0.27976328,0.8234718000000001,0.5944988,0.630545,-0.02465481,-0.10577392,0.52407753,0.52922165,0.72713673,0.37799993,0.5943411,0.9187478000000001,1.1417542999999999,0.5054141,0.78920573,0.65962964,1.1333503,0.49251738,0.5114042000000001,776.8498,799.81683,788.5348,785.7143,799.41394,-0.50262451171875,0.01873779296875,0.892822265625,1.375732421875,-2.998199462890625,-0.560760498046875,49.0,36.0,13.0
724.3822843822844,69.77389747577257,,,,,,,32.82859793316157,32.90463420125039,0.09632192694396458,0.0453194378727195,738.4615384615386,68.42769230769235,0.09266250000000006,92.30769230769226,12.727272727272727,57.57575757575758,12.692307692307693,218.75,,,0.05601874184651354,0.015547744228611769,0.0008474974074393661,3.6030141107817375,0.7735901155058172,0.21470637963667952,-4.163839716564069,2021-09-23 20:49:05,2021-09-23 20:49:05.001,0.18000974,0.22394244,0.67528355,0.4944037,0.34772992,-0.13608284,-0.042820536,0.5762980999999999,1.3534529,0.65228325,0.91226757,1.2968278999999998,0.90068525,1.1087215,0.50768125,1.002657,0.54525936,1.0219713,0.35299402,0.64799774,844.1392,807.47253,807.47253,795.38464,683.36993,-0.512451171875,0.01495361328125,0.8846435546875,1.62994384765625,-3.39447021484375,-0.059814453125,50.0,41.0,9.0
726.2195121951221,68.58444050690998,,,,,,,32.92363263811011,33.01151914161088,0.0944403714788685,0.045335648636860265,738.4615384615386,68.42769230769235,0.09266250000000006,92.30769230769226,12.80487804878049,57.92682926829268,11.714285714285715,218.75,,,0.05986631133077708,0.01701735801017825,0.0009405403167235387,3.517955683542089,0.7692504889430649,0.21866406462759572,-4.073521396430275,2021-09-23 20:49:06,2021-09-23 20:49:06.007,0.39853373,0.12247222,0.40036288,0.53435975,0.293236,-0.052144725,0.006062021,0.42754492,1.2618368,0.6452190999999999,0.9102292,1.2798909,0.84012413,1.1132686,0.45877674,0.9896473,0.5349435,0.82179236,0.17641197,0.51168185,763.1502,804.65204,807.47253,817.1429,780.07324,-0.52001953125,0.0228271484375,0.882568359375,1.79443359375,-3.162689208984375,0.70281982421875,48.0,48.0,0.0
726.7823639774858,67.89638764126083,,,,,,,33.75120751057612,33.85468812638155,0.09342052174970512,0.046439221950660386,738.4615384615386,68.42769230769235,0.09266250000000006,92.30769230769226,13.414634146341465,59.14634146341463,11.714285714285715,218.75,,,0.0604982049768682,0.01774087948713506,0.0009958913458350503,3.410101794600372,0.7635290395249463,0.22390212536585694,-4.031883726828165,2021-09-23 20:49:07,2021-09-23 20:49:07.005,0.7496470000000001,0.3153188,0.48221365,0.8120596999999999,0.38652164,0.10542245,0.18863375,0.5210023,1.2619934,0.7257462,0.03573755,1.2686191999999998,0.6992062,0.91379476,0.33011746,0.80373436,0.4148850000000001,0.68169427,0.07176678,0.45503333,774.83514,805.4579,809.4872,840.9158,757.50916,-0.5196533203125,0.02569580078125,0.87786865234375,1.65985107421875,-3.192596435546875,0.441131591796875,44.0,51.0,-7.0
726.9230769230769,67.70378297346353,,,,,,,33.62189206377861,33.72537079991273,0.09313747922275407,0.04625233828879597,738.4615384615386,68.42769230769235,0.09266250000000006,92.30769230769226,13.414634146341465,58.536585365853654,11.714285714285715,218.75,,,0.061572648379801184,0.018518960146138647,0.0010495046065919624,3.32484372199697,0.7588341594381572,0.22823152691892104,-3.988960198957144,2021-09-23 20:49:08,2021-09-23 20:49:08.001,0.5617506999999999,0.36183617,0.5987016,0.7030973,0.7158318,-0.10855851,0.2132904,0.80817163,1.2542647,0.41291764,0.25460437,1.3136221000000001,0.76348215,0.6149223,0.28897464,0.6352859000000001,0.26169816,0.42354685,-0.008090311999999999,0.3433986,847.7655599999997,797.8022,794.17584,787.326,756.7033,-0.528564453125,0.02777099609375,0.87689208984375,2.28790283203125,-2.145843505859375,-0.299072265625,42.0,51.0,-9.0
726.87617260788,67.71985019936504,,,,,,,33.540816729805265,33.6433459444438,0.09316559374398027,0.046143783485800366,738.4615384615386,68.42769230769235,0.09266250000000006,92.30769230769226,13.414634146341465,57.92682926829268,11.714285714285715,218.75,,,0.06108976285971063,0.01883178543881749,0.0010741553780691706,3.2439708416488124,0.754234608586551,0.23250351048260234,-3.972209121964896,2021-09-23 20:49:09,2021-09-23 20:49:09.000,0.4747692,-0.46881622,-0.11043367,0.37669617,0.5691088000000001,-0.25189453,-0.023202132,0.5403962,1.2033707,0.07850618,0.28239846,1.2482816,0.6918761999999999,0.12749664,-0.022260822000000003,0.65155303,0.1814625,-0.22814475,-0.22218893,0.25491762,840.9158,808.2784,799.0110000000003,772.8205,708.3516,-0.5426025390625,0.0279541015625,0.86175537109375,1.4654541015625,-2.82623291015625,-0.5682373046875,38.0,47.0,-9.0
726.6885553470918,67.79446461887765,,,,,,,33.52457813445511,33.62669039291161,0.0932923246417396,0.04613335092148603,738.4615384615386,68.42769230769235,0.09266250000000006,92.30769230769226,13.414634146341465,57.92682926829268,11.714285714285715,218.75,,,0.06008905969437505,0.018949319829781496,0.001084592087247646,3.1710404507467715,0.7499604481197544,0.2365029584984136,-3.965987240985387,2021-09-23 20:49:10,2021-09-23 20:49:10.010,0.9920855,-0.037479494,0.738733,1.0843009,0.581222,-0.22254610000000002,0.19900796,0.68205917,1.0056574,-0.2872928,0.2965222,1.2471398999999999,0.57942694,-0.050616857,-0.0143284425,0.57511294,0.1486646,-0.39748326,-0.32256642,0.39793938,805.4579,803.8461,800.2198,811.0989,815.9341,-0.54345703125,0.03179931640625,0.8603515625,2.130889892578125,-2.699127197265625,-0.538330078125,35.0,40.0,-5.0
726.6163284568194,68.01853854486362,,,,,,,33.40448247156035,33.507216183001965,0.09360997803245176,0.045972655944168585,738.4615384615386,68.42769230769235,0.09266250000000006,92.30769230769226,13.496932515337427,57.05521472392638,11.642857142857142,218.75,,,0.056489008214689,0.018247401301696484,0.0010440713157883208,3.095728935902624,0.7454295300631781,0.2407928941769034,-4.003732603520277,2021-09-23 20:49:11,2021-09-23 20:49:11.010,1.0453018,-0.04913232,0.53699446,1.2660524,0.6147314,-0.33562496,-0.026828544,0.7222377,1.1273541,0.0068809909999999995,0.14770043,1.3775322,0.63980603,-0.0053642676,0.017608806,0.64678645,0.40896565,-0.4772322,-0.2616128,0.37674934,815.5311,799.41394,802.6374,785.7143,743.8095,-0.5458984375,0.03094482421875,0.8604736328125,1.772003173828125,-2.983245849609375,-0.411224365234375,32.0,22.0,10.0
726.594746716698,67.72978610776272,,,,,,,33.3018570908711,33.40364393617773,0.0932153534192435,0.04583277988363384,738.4615384615386,68.42769230769235,0.09266250000000006,92.30769230769226,13.414634146341465,56.70731707317073,11.714285714285715,218.75,,,0.056623001537244776,0.018558459447491762,0.0010575450374653954,3.051061522506792,0.7427038269721842,0.2434247298828537,-3.9868295589757907,2021-09-23 20:49:12,2021-09-23 20:49:12.032,0.81364983,-0.53892744,0.39402997,0.9141499,0.47054097,-0.4042068,0.09049594400000001,0.52860457,1.1988313999999998,-0.020943297,0.11901137,1.2562066,0.5451111,-0.15596949,-0.033232577,0.6095797,0.33701053,-0.44855052,-0.21012188,0.35431185,830.84247,794.9817,795.38464,787.7289400000003,891.685,-0.54925537109375,0.03436279296875,0.86871337890625,1.517791748046875,-2.91595458984375,0.889739990234375,24.0,16.0,8.0
727.041057102407,67.69617007575543,,,,,,,33.529991873389804,33.63382618583115,0.09311189432073592,0.04611842968954497,738.4615384615386,68.42769230769235,0.09266250000000006,92.30769230769226,13.496932515337427,57.668711656441715,11.642857142857142,218.75,,,0.05877688446404224,0.019472150798305467,0.0010988130748244011,3.0185101313593563,0.7407495690907979,0.2454023796028171,-3.9387699984004025,2021-09-23 20:49:13,2021-09-23 20:49:13.001,0.5187814000000001,-0.43706182,0.015316818999999999,0.74220395,0.45637932,-0.28814274,-0.04665166,0.5945978,1.3601763999999998,-0.06656586,0.3165263,1.4377377,0.8176513000000001,-0.16115165,-0.040210195,0.7366701,0.21843801,-0.23828278,-0.27160063,0.32012168,765.16486,788.9377400000003,799.0110000000003,809.8901400000003,666.8498,-0.53924560546875,0.0438232421875,0.8658447265625,1.9140625,-4.44122314453125,-0.067291259765625,21.0,18.0,3.0
727.0637898686679,67.38115756607057,,,,,,,33.62189206377861,33.72430768362742,0.09267571636079124,0.04624338680083608,738.4615384615386,68.42769230769235,0.09266250000000006,92.30769230769226,13.414634146341465,57.92682926829268,11.714285714285715,218.75,,,0.05626699570844825,0.018671807319265304,0.0010412754442219664,3.0134734547304785,0.7405493234549814,0.2457460915384819,-3.980740522725044,2021-09-23 20:49:14,2021-09-23 20:49:14.000,0.37801453,-0.3407515,-0.21819653,0.41747209999999996,0.41952443,-0.0016728635,-0.33621034,0.52675915,1.3445678,0.2842174000000001,0.42064455,1.4377377,0.74469805,0.031504266,-0.16257201,0.8031961999999999,0.22994395,-0.29276037,-0.35566983,0.32282084,763.1502,801.02563,795.78754,816.7399,917.8755,-0.537353515625,0.0435791015625,0.86724853515625,1.07666015625,-4.17205810546875,0.411224365234375,16.0,23.0,-7.0
727.84332232185,67.14820931338743,,,,,,,33.655033217431075,33.75908775273321,0.0922564063639162,0.04623939271719928,738.4615384615386,68.42769230769235,0.09266250000000006,88.46153846153845,13.496932515337427,57.668711656441715,11.642857142857142,218.75,,,0.055738501445536194,0.01835582220649493,0.0010028978671020226,3.036557056311755,0.7422178919274028,0.2444274479824565,-3.997808468348772,2021-09-23 20:49:15,2021-09-23 20:49:15.000,0.31222826,-0.22748432,0.023948507,0.32480149999999997,0.0049017738,-0.07697683599999999,-0.14750378,0.40790707,1.2047473,0.25650877,0.26420832,1.0598073000000001,0.6168528,-0.0557641,-0.08240839999999999,0.64713764,0.23075745,-0.52982897,-0.40276069999999997,0.40994579999999997,831.2454,799.41394,790.54944,751.8681,704.7253,-0.537353515625,0.0372314453125,0.86602783203125,1.6748046875,-3.0804443359375,-0.650482177734375,12.0,34.0,-22.0
727.9080675422141,66.89823131471071,,,,,,,33.35631641930503,33.458808248290794,0.0919047806965418,0.04582490276819274,738.4615384615386,62.725384615384634,0.08494062500000002,86.53846153846155,13.414634146341465,56.70731707317073,11.714285714285715,218.75,,,0.05542091475452683,0.01799558186976287,0.0009630971614437348,3.07969562504939,0.7451091345588524,0.24194245966982625,-4.017629002894006,2021-09-23 20:49:16,2021-09-23 20:49:16.015,0.6123147,-0.20240642,0.5022477,0.84111947,0.68250394,-0.28029993,0.41971865,0.89972496,1.433363,0.17421629,0.34862038,1.1682967,0.6505571,-0.047642205,0.07024672,0.7266415,0.21231994,-0.45871842,-0.13407815,0.42397407,766.77655,799.81683,792.1612,816.337,866.30035,-0.5340576171875,0.03387451171875,0.8736572265625,2.160797119140625,-3.865509033203125,-0.022430419921875,13.0,37.0,-24.0
727.673545966229,66.92841707440039,,,,,,,33.29095453464804,33.39082849636343,0.09197588320395876,0.04574984856766121,738.4615384615386,62.725384615384634,0.08494062500000002,86.53846153846155,13.414634146341465,56.09756097560976,11.714285714285715,218.75,,,0.055069574062100286,0.01750895211927058,0.0009144494183921065,3.1452238653100197,0.749317517935386,0.2382398042313999,-4.045042979176993,2021-09-23 20:49:17,2021-09-23 20:49:17.000,0.7874123000000001,0.07795285,0.70513093,1.0375450000000002,0.73903155,-0.10507342,0.5495749,0.8900950999999999,1.3461841,0.34905764,0.39623243,1.1464251,0.7569071999999999,0.060441602000000004,0.17837898,0.8088886,0.17771529,-0.12461545,-0.11494646,0.34162134,805.05493,796.99634,793.36993,795.38464,708.3516,-0.5338134765625,0.03936767578125,0.86761474609375,1.846771240234375,-2.1533203125,0.04486083984375,13.0,39.0,-26.0
726.1257035647279,66.9875086624069,,,,,,,33.675833847321066,33.768863392634245,0.0922533224392814,0.046377416034163496,738.4615384615386,68.42769230769235,0.09266250000000006,92.30769230769226,14.02439024390244,56.70731707317073,12.615384615384615,218.75,,,0.05436168149027818,0.016819500048190373,0.0008541817922072611,3.232062863612109,0.7546527007954799,0.2334894872533792,-4.08521634853008,2021-09-23 20:49:18,2021-09-23 20:49:18.001,0.17707855,-0.14970304,0.21953182,0.5932208000000001,0.29862767,-0.22517534,-0.010031919,0.5600738000000001,1.0308024,0.20776439,0.15750729,0.9640407,0.6597963000000001,0.08312512,0.04441961,0.6322011,0.08351596,-0.18035589999999999,-0.22169495,0.20791642,843.7362699999999,800.2198,805.8608,807.47253,823.1868,-0.54302978515625,0.04376220703125,0.8731689453125,2.265472412109375,-3.96270751953125,1.1663818359375,18.0,38.0,-20.0
725.2345215759848,66.6611843103355,,,,,,,33.59488869257318,33.69093537244016,0.09191672807504543,0.046322793100870535,738.4615384615386,68.42769230769235,0.09266250000000006,86.53846153846155,14.02439024390244,56.09756097560976,12.615384615384615,218.75,,,0.05384464358535272,0.01612937281967771,0.0007937462422738358,3.3382974147427897,0.7608640088525366,0.2279197789544943,-4.127113270447989,2021-09-23 20:49:19,2021-09-23 20:49:19.000,0.34125543,-0.44285038,-0.24007517,0.26079828,0.37045696,-0.42629173,-0.3198886,0.48934078,1.0089046999999998,-0.08130117,0.12627012,0.94688433,0.5482220999999999,-0.06069223,-0.2241174,0.5184354999999999,0.13782363,-0.6160635999999999,-0.46097714,0.4243552,791.3553,795.78754,799.0110000000003,810.696,813.1135,-0.5272216796875,0.0484619140625,0.87420654296875,2.1832275390625,-2.73651123046875,-0.067291259765625,23.0,37.0,-14.0
724.6153846153846,66.2763384471141,,,,,,,33.44379637894162,33.54504011644227,0.09146416133890482,0.046153859121681635,738.4615384615386,57.02307692307691,0.07721874999999997,84.61538461538464,13.93939393939394,55.75757575757577,12.692307692307693,218.75,,,0.054510421492232716,0.015601603553804369,0.0007346250999823022,3.493898643446854,0.7694142401917851,0.22021653136243546,-4.1603815780988365,2021-09-23 20:49:20,2021-09-23 20:49:20.025,0.36005953,-0.18682100000000001,-0.019643677,0.38504586,0.21061522,-0.6408129,-0.32336820000000005,0.37811118,0.9746606,-0.07975479,0.13632867,0.8545972,0.5490029000000001,-0.052111395,-0.08040976,0.61596817,0.16560479,-0.44158724,-0.6378927,0.38992393,813.5165,795.38464,797.8022,780.07324,690.2198,-0.5345458984375,0.05078125,0.86944580078125,2.04864501953125,-2.205657958984375,-0.157012939453125,26.0,37.0,-11.0
724.3822843822843,66.24053094143106,,,,,,,33.449190104705096,33.550813417561145,0.0914441619702469,0.046176157018015467,730.7692307692308,68.42769230769218,0.09363789473684196,84.61538461538464,13.93939393939394,55.75757575757577,12.692307692307693,218.75,,,0.05610015017313935,0.015448095722058491,0.0007004553696389221,3.6315252819823858,0.7764866245484074,0.2138183171685196,-4.1702695374705065,2021-09-23 20:49:21,2021-09-23 20:49:21.002,0.43845690000000004,-0.0051652826,0.24141933,0.5803524,0.6493757,-0.30090922,-0.24481839,0.4420174,1.3986404,0.05798354,0.20774070000000008,1.1687998,0.76810557,-0.12503068,-0.029459454,0.78165203,0.06536966,-0.2961263,-0.47375839999999997,0.31649,846.5567599999997,797.8022,803.8461,797.3993,732.9304,-0.533203125,0.05218505859375,0.873046875,1.757049560546875,-3.117828369140625,0.007476806640625,26.0,39.0,-13.0
723.5928705440899,66.51716630950342,,,,,,,33.78883129048365,33.8855185911093,0.09192623230171862,0.0466959151560972,730.7692307692308,68.42769230769218,0.09363789473684196,84.61538461538464,14.634146341463413,56.70731707317073,12.615384615384615,218.75,,,0.0584425637083109,0.015331613658776047,0.0006619614482953973,3.8118990609222334,0.7851369595252791,0.20597002884313687,-4.177838330139253,2021-09-23 20:49:22,2021-09-23 20:49:22.024,0.290831,-0.45091990000000004,0.06391369599999999,0.7533193,0.43554267,-0.13597427,0.030214839,0.5375193,1.2904263,0.32713342,0.43309814,1.1774687,0.5735483,-0.11958149,0.08725436,0.7587746999999999,0.10526866,-0.245448,-0.19479464,0.41482213,797.8022,799.81683,797.8022,819.5604,772.4176,-0.53204345703125,0.05389404296875,0.86737060546875,2.04864501953125,-4.418792724609375,0.657958984375,21.0,45.0,-24.0
721.8648018648017,67.39247683433226,,,,,,,33.893877321750324,33.98192757601622,0.09335886257403946,0.04695322065044849,730.7692307692308,68.42769230769218,0.09363789473684196,84.61538461538464,14.545454545454545,56.96969696969697,12.692307692307693,218.75,,,0.060048139975323565,0.015176538399380737,0.0006296009267712949,3.95664270699396,0.7916249488927047,0.2000749138893408,-4.188004569950468,2021-09-23 20:49:23,2021-09-23 20:49:23.002,1.353232,-0.05199737,0.17575847,1.1506006000000002,0.9146751000000001,0.11982907,0.18551433,0.64804727,0.97126037,0.38640267,0.47475284,1.0304008,0.48431644,0.21846285,0.22654381,0.6745773,0.21651392,0.0059959246,0.011654576000000002,0.44909483,862.2710599999997,803.0403,798.20514,803.8461,644.6886599999998,-0.54046630859375,0.046875,0.87774658203125,1.801910400390625,-2.953338623046875,0.321502685546875,19.0,47.0,-28.0
720.4195804195803,67.96133722901106,,,,,,,33.88323058760302,33.98375138860954,0.09433577192534057,0.04703263418780075,723.0769230769231,68.42769230769235,0.09463404255319156,92.30769230769238,14.545454545454545,57.57575757575758,13.75,218.75,,,0.06168268548173207,0.014935045662229102,0.0005891045327723862,4.130063400993026,0.7989277755145751,0.19344201237261446,-4.204044769921409,2021-09-23 20:49:24,2021-09-23 20:49:24.002,1.1342908,0.17766969,0.62348974,0.7360549,0.36532608,0.0041097975,0.11988898,0.29113257,0.6687337,0.23590523,0.26817328,0.755169,0.46304979999999996,0.25382748,0.022226686000000002,0.56047654,0.09904071,-0.095392965,-0.3151337,0.21289086,846.1539,800.6227,808.6813400000003,791.75824,700.696,-0.5120849609375,0.05303955078125,0.87353515625,1.712188720703125,-3.63372802734375,-0.037384033203125,16.0,52.0,-36.0
720.2331002331002,67.99620638790353,,,,,,,33.989547857312296,34.0915732050587,0.09440861072046933,0.047192426793925095,723.0769230769231,68.42769230769235,0.09463404255319156,92.30769230769238,14.545454545454545,57.57575757575758,13.75,218.75,,,0.06200977089937799,0.014571970010329031,0.0005522335506738881,4.255414391837458,0.8039229319270808,0.1889176606323298,-4.228655457871905,2021-09-23 20:49:25,2021-09-23 20:49:25.025,0.94180393,-0.17258216,0.5670329000000001,0.5760585,0.36170948,-0.26691222,0.06505993,0.25867465,1.0169854,0.12323722,0.046662983,1.0345495,0.45987943,-0.045756813,-0.15503736,0.84438777,0.26236132,-0.48620766,-0.5478441,0.5400762,833.2601,801.4286,800.2198,811.0989,676.9231,-0.52423095703125,0.04815673828125,0.87310791015625,1.9140625,-2.25799560546875,-0.07476806640625,17.0,51.0,-34.0
720.5746061167747,67.93248801623521,,,,,,,34.22336946288111,34.32755043282916,0.0942754399607946,0.047494553891252365,726.9230769230769,62.72538461538471,0.08628888888888903,90.38461538461547,15.06024096385542,57.83132530120483,13.833333333333336,218.75,,,0.062149322236447674,0.014247702034697671,0.0005191414668872456,4.362059375265875,0.8080137854000802,0.1852367691237193,-4.251159645994356,2021-09-23 20:49:26,2021-09-23 20:49:26.001,0.2009118,-0.045215535999999994,0.44359854,0.45376518,0.22261132,-0.17452686,0.1183405,0.27251529999999996,1.2284826000000002,0.03914896,0.1477729,1.1846412,0.57275116,-0.09817143,-0.10797839,0.7209471,0.28954253,-0.48416859999999995,-0.40169793,0.49368304,853.00366,801.02563,792.1612,795.78754,1019.0110000000001,-0.52825927734375,0.04547119140625,0.87091064453125,1.757049560546875,-3.30474853515625,-0.605621337890625,20.0,53.0,-33.0
720.2965708989806,67.79477636744494,,,,,,,34.36454048085182,34.46886572038847,0.09412064294965657,0.047708876967111576,726.9230769230769,62.72538461538471,0.08628888888888903,90.38461538461547,15.06024096385542,57.83132530120483,13.833333333333336,218.75,,,0.0618278633093009,0.013911298986294177,0.00048763102264035566,4.444434942431727,0.8111040831952467,0.1824988088927812,-4.275053892339022,2021-09-23 20:49:27,2021-09-23 20:49:27.017,0.3798406,-0.07096289,0.081733406,0.27454555,0.28639933,-0.057065494,-0.06746896,0.30416146,1.2732697,0.2946614,0.26268238,1.2620825,0.6807888000000001,-0.16257887,-0.04125829,0.7940341999999999,0.028153734,-0.60221124,-0.44965038,0.41931419999999997,830.84247,791.75824,807.8755,782.0879,713.9927,-0.53271484375,0.044921875,0.8731689453125,1.54022216796875,-3.013153076171875,0.22430419921875,19.0,51.0,-32.0
719.5337995337998,68.05069384628435,,,,,,,34.89050559356223,34.99281388674,0.094576090644214,0.04849043313346571,723.0769230769231,68.42769230769235,0.09463404255319156,92.30769230769238,15.757575757575754,58.78787878787879,13.75,218.75,,,0.06130659714981865,0.013601874424069058,0.00045492742267711585,4.507216817215588,0.8134797257832426,0.18048382378147584,-4.297547670437969,2021-09-23 20:49:28,2021-09-23 20:49:28.002,0.5278971,-0.32105890000000004,0.03774777,0.43629650000000003,0.47341275,0.013202321000000001,-0.17212878,0.34342417,1.2535471000000002,0.39405748,0.22008926,1.2480913,0.5515946999999999,-0.08440094,-0.040166814,0.7886249,0.17032431,-0.46922442,-0.55621254,0.44357258,763.95605,796.99634,800.6227,813.5165,800.2198,-0.5428466796875,0.04962158203125,0.86175537109375,1.89910888671875,-2.355194091796875,0.11962890625,18.0,48.0,-30.0
719.0454124189064,67.85053454731778,,,,,,,34.87727915190612,34.98232559004699,0.09436196014249648,0.04850497416370008,723.0769230769231,68.42769230769235,0.09463404255319156,92.30769230769238,15.662650602409641,59.63855421686747,13.833333333333336,218.75,,,0.06080598532899228,0.013446753546528904,0.0004337414930158631,4.5219825825311215,0.8141498304505435,0.18004267278597824,-4.3090175740744865,2021-09-23 20:49:29,2021-09-23 20:49:29.000,0.21741897,-0.18740925,-0.36686799999999997,0.34505928,0.42850634,-0.42038542,-0.26438662,0.031667147,1.0598245000000002,0.13673131,0.08069929,0.89766663,0.57973975,-0.17423344,-0.11040371,0.7976879,0.180815,-0.5422442,-0.5437187,0.2948794,773.6264,810.293,804.2491,810.293,790.9524,-0.52801513671875,0.0535888671875,0.86627197265625,2.1533203125,-4.1571044921875,0.16448974609375,17.0,51.0,-34.0
718.5547785547784,67.7930124550546,,,,,,,34.97829358034017,35.084636274812475,0.09434633862070467,0.04867867367146543,723.0769230769231,68.42769230769235,0.09463404255319156,92.30769230769238,15.757575757575754,60.0,13.75,218.75,,,0.06014925291160422,0.01338743713891142,0.00041331844717786714,4.4929624906903705,0.8133772278536014,0.1810336119072788,-4.313438538725444,2021-09-23 20:49:30,2021-09-23 20:49:30.007,0.064364135,-0.08420282,-0.0094421515,0.40731645,0.41638324,-0.34637254,0.08844009,0.2708703,1.3046852,-0.06751429,0.24365331,1.0299151,0.677271,-0.32508459999999995,-0.054188874000000005,0.77178556,0.29208720000000005,-0.51598614,-0.4807299,0.29701787,833.2601,795.78754,802.2344400000003,780.4762,821.5751,-0.54437255859375,0.055908203125,0.8604736328125,1.772003173828125,-3.102874755859375,0.246734619140625,18.0,51.0,-33.0
718.4615384615386,67.71213252253267,,,,,,,35.019529425582014,35.12650347267717,0.09424600886433884,0.04874238571012486,723.0769230769231,68.42769230769235,0.09463404255319156,92.30769230769238,15.757575757575754,60.60606060606061,12.692307692307693,218.75,,,0.059508842823470486,0.013429599775526269,0.000400446249516256,4.431170237248453,0.8114227493464002,0.18311703362817666,-4.3102940696709195,2021-09-23 20:49:31,2021-09-23 20:49:31.002,0.43876034,-0.46677023,0.046102032,0.582425,0.24931629,-0.36372185,0.12674063,0.43894628,1.295267,-0.04027374,0.29135079999999997,1.1438335,0.60896605,-0.2676715,-0.10906901,0.62606007,0.19526075,-0.502025,-0.3905092,0.42310748,843.7362699999999,800.2198,793.7729,787.326,816.7399,-0.54254150390625,0.0523681640625,0.863525390625,1.413116455078125,-2.400054931640625,-1.009368896484375,21.0,45.0,-24.0
718.1649675625576,67.27971647179432,,,,,,,34.99532487539302,35.098086721899534,0.09368281594149708,0.04872881086662675,723.0769230769231,68.42769230769235,0.09463404255319156,92.30769230769238,15.662650602409641,60.843373493975896,12.769230769230768,218.75,,,0.058777728636184426,0.013555473236320321,0.0003907658308294426,4.336088280466396,0.8082304980382641,0.1863962276043258,-4.3009648843340065,2021-09-23 20:49:32,2021-09-23 20:49:32.004,0.47131833,-0.5563903,-0.109251074,0.46546146,0.09847986,-0.16641596,-0.21302222,0.34940479999999996,1.1603037,0.09960488,0.1549149,1.0966837,0.5169044,-0.10774989,-0.03532633,0.7415470000000001,0.084016345,-0.50962543,-0.42047134,0.18952097,802.2344400000003,797.8022,794.17584,827.6189999999997,700.293,-0.55120849609375,0.0455322265625,0.85736083984375,1.951446533203125,-1.682281494140625,-0.471038818359375,23.0,37.0,-14.0
717.7479147358664,66.93508271942021,,,,,,,34.93378556949601,35.03934907862223,0.09325709116696287,0.048671385666584285,723.0769230769231,68.42769230769235,0.09463404255319156,92.30769230769238,15.662650602409641,60.24096385542168,12.769230769230768,218.75,,,0.05799262078098755,0.013775397291433405,0.00038390277555603247,4.209869200436912,0.803757129393369,0.1909221144709087,-4.284871082875697,2021-09-23 20:49:33,2021-09-23 20:49:33.000,-0.042876057,-0.5413353,-0.3565324,-0.006077405,0.27290747,-0.2601187,-0.28865156,0.21122929999999995,1.2229681000000001,0.0959779,0.061119683,1.1600133999999998,0.5253048,-0.20508568,0.07413894,0.65642965,0.12824272,-0.5523802,-0.5997584,0.23368198,768.7912,796.5934,793.7729,810.696,682.1612,-0.54132080078125,0.04998779296875,0.86444091796875,2.03369140625,-2.76641845703125,0.530853271484375,23.0,38.0,-15.0
717.016317016317,66.64326506884134,,,,,,,34.962817599825804,35.06788171199115,0.09294525589900177,0.048761536899627034,723.0769230769231,68.42769230769235,0.09463404255319156,92.30769230769238,15.757575757575754,60.0,12.692307692307693,218.75,,,0.05683659268040181,0.014158134412877926,0.00037828957609155046,4.014412564744725,0.7963316577144542,0.19836816591996012,-4.2574659498993945,2021-09-23 20:49:34,2021-09-23 20:49:34.007,0.029759457000000007,-0.3762017,-0.11136018,0.21478730000000001,-0.048499215,-0.37843478,-0.37852237,0.15254492,1.2425591999999999,0.18584687,0.34770924,1.2418562,0.6471946,-0.09200838,0.001340864,0.609651,0.17671299,-0.5722869,-0.37689173,0.37962568,772.4176,797.8022,793.36993,777.6557,630.989,-0.54803466796875,0.0513916015625,0.86065673828125,1.62994384765625,-3.648681640625,-0.46356201171875,24.0,38.0,-14.0
716.1260426320669,66.24338774320859,,,,,,,35.18948935942499,35.28964109779138,0.09250241409980854,0.04913868127192903,723.0769230769231,68.42769230769235,0.09463404255319156,92.30769230769238,16.265060240963855,60.24096385542168,12.769230769230768,218.75,,,0.05573804745621686,0.014532061406121325,0.0003758309497622838,3.8355224285481184,0.7889773652168169,0.2057027119289908,-4.231397939052607,2021-09-23 20:49:35,2021-09-23 20:49:35.031,0.18061164,-0.4160504,0.017690333,0.36964783,0.31831187,-0.06519385400000001,-0.21171376,0.44804865,1.3026612,0.43418965,0.395539,1.4875005,0.7689538,-0.031536247999999996,-0.064733416,0.67227626,0.25820476,-0.51953334,-0.42310837,0.34636202,828.0219999999997,796.5934,796.5934,791.75824,710.7692,-0.5511474609375,0.04949951171875,0.8612060546875,1.435546875,-2.579498291015625,-0.37384033203125,21.0,50.0,-29.0
714.6015660985719,66.83974620059584,,,,,,,35.1645248563033,35.25177730827424,0.093534284518173,0.049208575134094684,715.3846153846154,79.83230769230764,0.1115935483870967,96.1538461538462,16.167664670658677,60.47904191616767,13.916666666666664,218.75,,,0.05404540450901831,0.015044458777178681,0.0003744412292840709,3.5923794474415494,0.7780313196250827,0.2165782682503619,-4.196745543147814,2021-09-23 20:49:36,2021-09-23 20:49:36.001,0.107470386,-0.64149004,-0.14389655,0.25585264,0.15380943,-0.28564107,-0.24133743,0.23861165,1.1641465,0.25470313,0.3129011,1.3909531000000002,0.56172174,-0.2144384,-0.25692493,0.64687526,0.27136385,-0.45069903,-0.5884904000000001,0.3886384,809.0842,792.96704,801.02563,786.1172,855.42126,-0.54193115234375,0.05364990234375,0.8662109375,1.39068603515625,-3.207550048828125,0.37384033203125,18.0,60.0,-42.0
713.6342699216951,66.87729009427123,,,,,,,35.245525884691084,35.338692067923716,0.09371367507562307,0.049388779897801806,715.3846153846154,79.83230769230764,0.1115935483870967,100.00000000000013,16.167664670658677,61.07784431137725,13.916666666666664,218.75,,,0.052329229340026366,0.015443941571387638,0.00037379056235897854,3.3883338070233706,0.7678879323205888,0.2266270019585743,-4.170538483843736,2021-09-23 20:49:37,2021-09-23 20:49:37.000,0.52196276,-0.10774837,0.4939581,0.25855184,0.58222824,-0.1716458,-0.037593257000000005,0.6695183000000001,1.1661772,0.14353745,0.17518859,1.1083101999999998,0.5833871,-0.13356254,-0.19871448,0.41602520000000004,0.28066924,-0.474286,-0.5702429,0.20565252,852.6007,800.2198,803.8461,813.5165,726.4835,-0.5413818359375,0.0587158203125,0.8695068359375,0.83740234375,-3.028106689453125,-0.022430419921875,18.0,62.0,-44.0
712.436665131276,66.6533747487677,,,,,,,35.34651613719519,35.449778270011635,0.09355691251023124,0.04961355565646263,715.3846153846154,79.83230769230764,0.1115935483870967,100.00000000000013,16.167664670658677,61.07784431137725,13.916666666666664,218.75,,,0.050424841149624415,0.01584845258873954,0.00037445406915671,3.1816886139061737,0.7565873237795199,0.2377942707758111,-4.1446834118955085,2021-09-23 20:49:38,2021-09-23 20:49:38.016,0.5587681999999999,-0.28218663,0.23781537,0.6117107,0.33122924,-0.20099664,-0.010616458999999998,0.43142584,1.1699528000000001,0.054507535,0.07085822,1.0867633999999995,0.59103245,-0.11257956,-0.118556276,0.3423532,0.29706675,-0.47616705,-0.5991635000000001,0.33235040000000005,820.7692,791.3553,800.2198,817.9487,780.4762,-0.52740478515625,0.04876708984375,0.87701416015625,2.58697509765625,-2.385101318359375,-0.299072265625,20.0,60.0,-40.0
712.2524182404422,66.49499128390354,,,,,,,35.547635917654794,35.65370882951759,0.09335874414884213,0.04990876128644413,715.3846153846154,68.42769230769235,0.09565161290322588,96.1538461538462,16.766467065868262,61.07784431137725,13.916666666666664,218.75,,,0.04890539368714867,0.016418226058875808,0.0003799687003523223,2.97872580824346,0.7443336786249083,0.24988324758358285,-4.10936321618534,2021-09-23 20:49:39,2021-09-23 20:49:39.007,0.54334646,-0.16678415,-0.15759405,0.5382255,0.23557229999999998,-0.1711807,0.0636761,0.17439964,1.233143,-0.1304306,0.18935002,1.1019375,0.48981857,-0.22111170000000002,-0.09200166,0.5411008,0.09721536,-0.40950054,-0.58077157,0.26383752,806.6667,801.02563,803.0403,828.0219999999997,800.6227,-0.5286865234375,0.04229736328125,0.86346435546875,1.86920166015625,-4.14215087890625,-0.889739990234375,25.0,43.0,-18.0
711.6536158452327,66.07931814683515,,,,,,,35.727675743064616,35.83068349557443,0.0928532036872357,0.05020374371404097,715.3846153846154,68.42769230769235,0.09565161290322588,96.1538461538462,16.766467065868262,61.676646706586816,13.916666666666664,218.75,,,0.046679920808145314,0.017046120404473897,0.00038659414795208166,2.7384483800720876,0.728092372831285,0.2658777058314017,-4.071832643403876,2021-09-23 20:49:40,2021-09-23 20:49:40.000,0.20981964,-0.07972092,-0.36420363,0.31347359999999996,0.1939194,-0.22055729,-0.055264007000000004,0.082332745,1.3518523999999998,0.095378116,0.19237138,1.2551092,0.5337923000000001,-0.081923276,-0.063321054,0.61771536,0.028883927,-0.58318365,-0.48644707,0.40402713,800.6227,801.4286,794.17584,798.20514,686.99634,-0.5113525390625,0.05255126953125,0.8861083984375,0.3887939453125,-6.3104248046875,3.1402587890625,28.000000000000004,29.0,-0.9999999999999928
710.0732600732599,66.12862727214058,,,,,,,36.06047509605704,36.14897575208533,0.09312930227131484,0.05078416147136225,715.3846153846154,68.42769230769235,0.09565161290322588,94.23076923076916,17.261904761904766,62.5,14.0,218.75,,,0.04415676822515882,0.017233672774649503,0.00038683779519450335,2.562237823739628,0.7147736042515791,0.2789645822995289,-4.06089008954167,2021-09-23 20:49:41,2021-09-23 20:49:41.001,0.13413937,-0.33636692,0.19580981,0.28813604,0.105662696,-0.30360395,-0.06897788,0.27259198,1.4998334999999998,0.041958544,0.4076575,1.4306703,0.58484584,-0.063635975,-0.100190006,0.6193406,0.16358720000000002,-0.31088227,-0.41803753,0.58826375,778.0586,799.81683,796.1905,781.685,673.2967,-0.53070068359375,0.04534912109375,0.8707275390625,1.31591796875,-3.521575927734375,-0.635528564453125,29.0,22.0,6.9999999999999964
708.6026399635867,66.00020795436373,,,,,,,35.95788996398646,36.054830701010104,0.09314135205276022,0.050744786903184895,715.3846153846154,68.42769230769235,0.09565161290322588,92.30769230769226,17.159763313609467,62.1301775147929,14.083333333333336,218.75,,,0.04118093076107048,0.01712917942175161,0.0003824370821687838,2.4041391445042937,0.7016381581658531,0.2918459024178165,-4.066971870785227,2021-09-23 20:49:42,2021-09-23 20:49:42.001,0.08471874,-0.36596507,0.43342826,0.10611973,0.27947873,-0.024976863999999998,-0.14246656,0.32221209999999995,1.2966067,0.29539287,0.4852065,1.3332955,0.50813293,-0.015672002,-0.034598242,0.6067938,0.3400248,-0.18748808,-0.54205877,0.49914706,745.42126,797.8022,807.47253,808.2784,673.2967,-0.54254150390625,0.03948974609375,0.87176513671875,1.9439697265625,-3.147735595703125,-0.64300537109375,28.000000000000004,21.0,7.000000000000004
707.7380952380953,65.76620449188378,,,,,,,36.354052329664846,36.460461096325496,0.0929244941516945,0.05136653314872745,711.5384615384614,74.13,0.10418270270270268,94.23076923076916,17.857142857142858,63.0952380952381,15.272727272727273,140.625,,,0.03863925384636811,0.017276142037011166,0.000385642095334013,2.2365672708403386,0.6862973620659911,0.3068529934304774,-4.058428802279881,2021-09-23 20:49:43,2021-09-23 20:49:43.000,-0.0044223134999999995,-0.037763293999999996,-0.24715189999999998,0.014870953999999999,-0.0065560937,0.10511187,-0.5382556,-0.080371834,1.2078577,0.3605546,0.31041142,1.1984303,0.480905,0.00041727876000000004,-0.030494947,0.5947453,0.270208,-0.35069203,-0.49425614,0.34414002,786.5201400000003,796.1905,800.6227,816.337,825.2015,-0.5291748046875,0.038818359375,0.8692626953125,1.801910400390625,-2.43743896484375,0.142059326171875,27.0,28.000000000000004,-1.0000000000000036
707.5102412380518,65.37358591913822,,,,,,,36.269979482559094,36.377685456562865,0.09239949064870476,0.05126424660523825,715.3846153846154,68.42769230769235,0.09565161290322588,92.30769230769226,17.75147928994083,63.31360946745561,15.363636363636365,140.625,,,0.0368606335439344,0.017317542806572328,0.000388144978463416,2.1285140712887456,0.6755198563177557,0.3173668736466236,-4.056035256202671,2021-09-23 20:49:44,2021-09-23 20:49:44.001,0.53681904,-0.004023465,-0.38770494,0.34905386,0.23372729,-0.046406873,-0.29316083,0.2468074,1.2548697,-0.007182154000000001,0.22261891,1.2695621000000001,0.43315107,-0.08426646,-0.043244075,0.65041304,0.11729165,-0.6610166000000001,-0.48223606,0.49322873,846.5567599999997,806.26373,800.6227,796.5934,820.7692,-0.53936767578125,0.03594970703125,0.87005615234375,1.79443359375,-2.88604736328125,-0.55328369140625,26.0,37.0,-11.0
707.1461083295402,65.24210911013748,,,,,,,35.918688109906945,36.02603931176359,0.09226114425526008,0.050793870866030884,707.6923076923077,68.42769230769218,0.0966913043478259,92.30769230769226,17.159763313609467,63.31360946745561,14.083333333333336,140.625,,,0.035006046955316235,0.01711882287558,0.0003866831635808906,2.044886334168009,0.6666351490118371,0.32600107784624954,-4.067576667899954,2021-09-23 20:49:45,2021-09-23 20:49:45.013,0.3510031,-0.32898563,-0.35123283,0.07602717,0.43786454,-0.11835885,-0.04262351,0.37976855,1.3559309,0.116770215,0.45378587,1.4012556999999999,0.57712173,-0.18407153,-0.11778046,0.7776811,0.09500925,-0.46499756,-0.4153954000000001,0.69815665,790.9524,796.1905,807.0696,808.2784,800.2198,-0.53643798828125,0.0406494140625,0.86920166015625,2.31781005859375,-2.669219970703125,0.0897216796875,26.0,46.0,-20.0
706.8274920345926,65.45154919555597,,,,,,,35.85980497505096,35.966745540011026,0.0925990428119238,0.05073346096347926,707.6923076923077,68.42769230769218,0.0966913043478259,100.0,17.159763313609467,62.721893491124256,14.083333333333336,140.625,,,0.033172698846410074,0.016787245085528972,0.0003852224329015587,1.9760656782812909,0.6589053377242743,0.3334430353030401,-4.087135902026688,2021-09-23 20:49:46,2021-09-23 20:49:46.001,0.117965415,-0.28175163,-0.29620785,0.10390443,0.5315154000000001,-0.08631216,-0.16517602,0.49487308,1.3443711,0.045501567,0.47457665,1.3905853000000001,0.59634095,-0.26360545,0.038868595,0.6449205,0.07839937,-0.6010135,-0.40508667,0.59720075,792.96704,797.3993,783.2967,780.07324,875.16486,-0.5435791015625,0.0428466796875,0.86151123046875,1.51031494140625,-3.013153076171875,-0.112152099609375,27.0,43.0,-16.0
707.8296703296703,64.63026091768141,,,,,,,35.92265131812854,36.02962327263606,0.09130764593066576,0.05075041754239778,711.5384615384614,62.72538461538471,0.08815459459459472,94.23076923076916,17.261904761904766,62.5,14.0,140.625,,,0.032842914849178416,0.016843001930614804,0.00039319661971537776,1.949944254858824,0.6558206130202914,0.3363278777770869,-4.08382002414173,2021-09-23 20:49:47,2021-09-23 20:49:47.027,0.20105627,-0.060213946,0.30643338,0.54870594,0.42045859,-0.079593055,-0.24260385,0.44216388,1.3490796,-0.37179852,0.45307627,1.3401964,0.5707228,-0.08778659,0.06332692,0.7078353000000001,0.03962627,-0.57418776,-0.45999378,0.32562238,792.1612,800.6227,803.8461,797.3993,681.75824,-0.54083251953125,0.041015625,0.86981201171875,1.86920166015625,-4.164581298828125,0.904693603515625,30.0,35.0,-5.0
708.2417582417581,64.20727995860068,,,,,,,35.365985522897724,35.4722292838869,0.09065729210601492,0.04993490585855225,711.5384615384614,62.725384615384634,0.08815459459459463,92.30769230769226,16.666666666666664,62.5,14.0,140.625,,,0.03293411424338249,0.016900448919256753,0.0004026252499845433,1.9487123922404581,0.6555724013230542,0.3364131125421411,-4.080415094136276,2021-09-23 20:49:48,2021-09-23 20:49:48.004,0.11979535,-0.4286348,0.39595017,0.47856509999999997,0.3844116,-0.29495052,-0.1981125,0.350878,1.329318,-0.0024970525,0.47325948,1.4360385,0.55263114,-0.11136657,-0.07580027,0.6105728,0.11862645,-0.5137187,-0.46507773,0.23172198,832.4542,803.4432400000003,794.57874,789.34064,730.1098599999997,-0.53924560546875,0.044921875,0.86419677734375,1.981353759765625,-3.656158447265625,-0.059814453125,30.0,26.0,4.0
708.1959706959706,64.066784996339,,,,,,,34.785140842837556,34.88605661697536,0.0904647691420472,0.04911795926860881,715.3846153846154,57.02307692307691,0.07970967741935482,92.30769230769226,15.476190476190474,62.5,14.0,140.625,,,0.03269640055111627,0.016514258350033558,0.000404138264285601,1.979889127206844,0.6590050230799794,0.3328494580955046,-4.103531128805433,2021-09-23 20:49:49,2021-09-23 20:49:49.018,0.36039317,-0.48317364,0.19776984,0.37905747,0.15600744,-0.06813307,-0.20987616,0.14214705,1.0083007,0.33710968,0.12866531,1.125642,0.44345912,-0.0772192,-0.125487,0.5328961999999999,0.019649588,-0.63104737,-0.53789574,0.2799877,846.5567599999997,804.2491,799.0110000000003,788.1319,774.0293,-0.5294189453125,0.044921875,0.8743896484375,1.4056396484375,-4.26177978515625,0.2392578125,28.000000000000004,22.0,6.000000000000004
707.6465201465201,63.46867496860841,,,,,,,34.785140842837556,34.88605661697536,0.0896898001497514,0.049156096797643,715.3846153846154,57.02307692307691,0.07970967741935482,86.53846153846155,15.476190476190474,62.5,14.0,140.625,,,0.031960922769664384,0.01575895112948032,0.00039428642751588206,2.028112309446469,0.6642726912965471,0.3275324981770099,-4.150346749465083,2021-09-23 20:49:50,2021-09-23 20:49:50.013,0.75889355,-0.22736550000000005,0.24277538,0.6525414,0.3227713,-0.15316685,-0.26573566,0.37582,1.1194363,0.15907447,0.28995746,1.0958798,0.44979355,-0.061512745999999986,-0.026266921000000002,0.53908664,0.17143492,-0.48630714,-0.5132437,0.32758898,772.8205,802.6374,796.99634,773.6264,700.696,-0.532470703125,0.05145263671875,0.8663330078125,1.951446533203125,-3.81317138671875,0.22430419921875,28.000000000000004,24.0,4.000000000000004
707.2371415566681,62.7777241323139,,,,,,,34.74233943386429,34.843751828279565,0.08876474444503388,0.04912403123709605,715.3846153846154,57.02307692307691,0.07970967741935482,84.61538461538464,15.384615384615385,62.721893491124256,14.083333333333336,140.625,,,0.03143081238565601,0.014886210559815531,0.00038257737679717787,2.1114045283291687,0.6730424279598859,0.3187652668778203,-4.207319960322774,2021-09-23 20:49:51,2021-09-23 20:49:51.022,0.11578105400000001,-0.28523514,0.15125059,0.23888125,0.18540734,-0.23476149,-0.3036014,0.241394,1.139234,0.33879384,0.37479272,1.185192,0.45656309999999994,-0.14838929999999995,-0.005208779,0.53720886,0.22382925,-0.65183926,-0.47728646,0.23060375,763.5531,805.4579,805.4579,809.8901400000003,907.8022,-0.5347900390625,0.053466796875,0.8720703125,2.093505859375,-2.938385009765625,0.127105712890625,25.0,36.0,-11.0
706.3186813186812,62.215992871876296,,,,,,,34.67802306409515,34.78219537289679,0.08808487516671712,0.04909685101256568,715.3846153846154,57.02307692307691,0.07970967741935482,84.61538461538464,15.476190476190474,61.904761904761905,14.0,140.625,,,0.03116105658655818,0.014225916247808725,0.00037278107706747017,2.190442853995998,0.6809708078165977,0.3108827087519361,-4.252689889950289,2021-09-23 20:49:52,2021-09-23 20:49:52.019,0.11519745,0.5594331,0.44287688,0.12715752,0.18216036,0.034425408,0.06406068,0.13083935,0.9990464,0.2114369,0.2320951,0.67742324,0.5231092,-0.11836982,0.10001461,0.54635304,0.18095961,-0.3872814000000001,-0.28889573,0.098412655,761.9414,798.60803,800.2198,801.8315,719.6337,-0.52886962890625,0.05096435546875,0.87066650390625,2.03369140625,-2.99072265625,0.829925537109375,26.0,43.0,-17.0
706.3644688644687,62.2483070738265,,,,,,,33.850759705036985,33.94640529974316,0.08812491258782466,0.047922511956829464,715.3846153846154,57.02307692307691,0.07970967741935482,84.61538461538464,14.88095238095238,61.904761904761905,14.0,140.625,,,0.031189909754204062,0.0137120379731429,0.00036556890879796026,2.2746370609018305,0.6890130511223966,0.30291120415017864,-4.289481147793989,2021-09-23 20:49:53,2021-09-23 20:49:53.000,0.7171605,0.44690555,0.44320509999999996,0.82199633,0.58935326,-0.044037599999999996,0.012647933,0.5911536000000001,0.41397187,-0.23320599,0.14277399,0.54397815,0.50761753,-0.021772886,0.15253533,0.71367174,0.13959856,-0.29117823,-0.015651237,0.47460032,778.46155,797.3993,794.57874,787.7289400000003,763.95605,-0.531005859375,0.04901123046875,0.87310791015625,1.65985107421875,-3.39447021484375,-0.2392578125,29.0,46.0,-17.000000000000004
707.3281747837959,62.14677957148749,,,,,,,33.73420547109194,33.82604696666116,0.08786130934270142,0.04769243849420141,715.3846153846154,57.02307692307691,0.07970967741935482,84.61538461538464,14.792899408284025,61.53846153846154,14.083333333333336,140.625,,,0.03206457157879553,0.013491455555756518,0.00036549860884176023,2.3766576887335376,0.6982470869537318,0.2937937130213357,-4.30569871571312,2021-09-23 20:49:54,2021-09-23 20:49:54.006,0.9934431999999999,0.18634003,0.64332545,1.0843914,0.8350451999999999,0.12774244,0.49215108,0.85902107,1.0156491,0.21726757,0.8503837,1.2157639,0.60718495,0.43553427,0.37439844,0.7519268,0.25489873,0.14650622,0.39002922,0.3345189,790.9524,815.12823,809.8901400000003,824.3956,772.8205,-0.53173828125,0.04864501953125,0.86956787109375,2.041168212890625,-3.289794921875,-0.179443359375,36.0,40.0,-4.0
708.5622710622711,61.269712537321794,,,,,,,33.913504447861,34.00935015056262,0.08647046990727678,0.0478624192013754,715.3846153846154,57.02307692307691,0.07970967741935482,78.84615384615391,14.88095238095238,61.904761904761905,14.0,140.625,,,0.03271552837498852,0.013368155957063805,0.000365094035560652,2.44727309286824,0.7043356041802782,0.2878042529184132,-4.314879821310074,2021-09-23 20:49:55,2021-09-23 20:49:55.006,1.2628313999999998,0.26810524,0.83774227,1.4707042,1.3122293,0.35312435,0.7682171999999999,1.4376892,1.0567821000000002,0.5775634,0.8656159999999999,1.2352923999999998,0.70068544,0.83405846,0.42868924,0.70700276,0.20952010000000001,0.75282437,0.41222724,0.23004225,803.4432400000003,784.5055,806.26373,817.5458,700.293,-0.52978515625,0.055419921875,0.86328125,2.534637451171875,-2.75146484375,-0.157012939453125,45.0,29.0,16.000000000000004
709.3406593406592,60.71035902642621,,,,,,,33.82981892993978,33.92703351676402,0.08558702821696026,0.04769192134197553,715.3846153846154,57.02307692307691,0.07970967741935482,76.923076923077,14.88095238095238,61.904761904761905,14.0,140.625,,,0.033299712086306714,0.013316502863645007,0.0003643410761261094,2.5006349209909517,0.7087977432157849,0.2834471106781564,-4.3187511961159935,2021-09-23 20:49:56,2021-09-23 20:49:56.001,0.40694422,-0.35291228,-0.061689176,0.4917005,0.37132356,-0.1350307,0.12355244,0.6159361,0.85582495,0.36298087,0.48680538,0.80999094,0.53277296,0.7987538000000001,0.48858574,0.56623685,0.4171276,0.6375694000000001,0.42603284,0.6923173,792.5641,797.8022,787.7289400000003,800.6227,677.7289400000002,-0.53369140625,0.0567626953125,0.8697509765625,1.854248046875,-3.536529541015625,0.19439697265625,51.0,20.0,31.0
710.3479853479852,60.645222083715495,,,,,,,33.28073422666286,33.380826886426675,0.08537396224754071,0.04685131078447318,715.3846153846154,57.02307692307691,0.07970967741935482,78.84615384615381,13.690476190476193,61.30952380952381,15.272727272727273,140.625,,,0.03379457026769325,0.01333817419386149,0.00036238528965501575,2.533672883298092,0.7115375922692887,0.2808324614277268,-4.317125114888682,2021-09-23 20:49:57,2021-09-23 20:49:57.004,0.42392436,-0.5010224,-0.11270283,0.5155267,0.2617509,-0.1410872,-0.087425284,0.526784,1.0330055,0.40768468,0.5117225000000001,0.8745997999999999,0.53938055,0.75154907,0.5082827999999999,0.5741996,0.3142736,0.4140104,0.34050298,0.46462902,757.1062,793.7729,787.7289400000003,821.5751,929.5604,-0.5325927734375,0.0513916015625,0.8775634765625,2.100982666015625,-3.66363525390625,-0.381317138671875,53.0,18.0,35.0
710.1648351648352,60.559471160409345,,,,,,,33.36048687930729,33.46053234127271,0.085275232117559,0.04697569525751588,715.3846153846154,57.02307692307691,0.07970967741935482,73.0769230769231,13.690476190476193,61.904761904761905,15.272727272727273,140.625,,,0.03461033148410487,0.01368683480761093,0.0003667384024030778,2.528731585542252,0.7112115581692645,0.28125229353543857,-4.2913208711170725,2021-09-23 20:49:58,2021-09-23 20:49:58.000,0.38585240000000004,-0.063737415,-0.16597207,0.42034987,0.22167587,-0.03201655,-0.38267413,0.35484737,0.75786287,0.71392965,0.33597764,0.5567524,0.4453982,0.84480363,0.32618445,0.53577054,0.38207173,0.54500836,0.20874965,0.45712182,838.9011,793.36993,804.65204,787.7289400000003,774.43225,-0.5313720703125,0.06060791015625,0.86822509765625,1.2261962890625,-2.58697509765625,-0.127105712890625,54.0,21.0,33.0
709.478021978022,60.557433796352825,,,,,,,33.34455160881161,33.440240814985216,0.08535491152709558,0.04699870972161637,715.3846153846154,57.02307692307691,0.07970967741935482,73.0769230769231,13.690476190476193,61.904761904761905,15.272727272727273,140.625,,,0.03553631015560296,0.014247577250040163,0.00037345161306662883,2.494200209056791,0.7084967195398296,0.28405767787492703,-4.251168404263138,2021-09-23 20:49:59,2021-09-23 20:49:59.002,0.9591379999999999,0.14194013,0.55827564,0.7832600000000001,0.6672729000000001,0.08680059,0.24703944,0.7111153,0.9632509,0.84375054,0.28711253,0.7639316999999999,0.52894235,1.0963528,0.44953784,0.4935602,0.40076777,1.067812,0.24258052,0.4934060000000001,772.01465,778.8644400000003,793.36993,782.0879,629.7802,-0.53607177734375,0.0574951171875,0.86492919921875,1.876678466796875,-3.21502685546875,-0.441131591796875,55.00000000000001,32.0,23.00000000000001
