HRV_MeanNN,HRV_SDNN,HRV_SDANN1,HRV_SDNNI1,HRV_SDANN2,HRV_SDNNI2,HRV_SDANN5,HRV_SDNNI5,HRV_RMSSD,HRV_SDSD,HRV_CVNN,HRV_CVSD,HRV_MedianNN,HRV_MadNN,HRV_MCVNN,HRV_IQRNN,HRV_pNN50,HRV_pNN20,HRV_HTI,HRV_TINN,HRV_ULF,HRV_VLF,HRV_LF,HRV_HF,HRV_VHF,HRV_LFHF,HRV_LFn,HRV_HFn,HRV_LnHF,Time,TimeStamp,Delta_TP9,Delta_AF7,Delta_AF8,Delta_TP10,Theta_TP9,Theta_AF7,Theta_AF8,Theta_TP10,Alpha_TP9,Alpha_AF7,Alpha_AF8,Alpha_TP10,Beta_TP9,Beta_AF7,Beta_AF8,Beta_TP10,Gamma_TP9,Gamma_AF7,Gamma_AF8,Gamma_TP10,RAW_TP9,RAW_AF7,RAW_AF8,RAW_TP10,AUX_RIGHT,Accelerometer_X,Accelerometer_Y,Accelerometer_Z,Gyro_X,Gyro_Y,Gyro_Z,Attention,Meditation,A_M
636.9885433715223,54.576078645094306,,,,,,,31.264018467593356,31.34466543973739,0.0856782735152945,0.049080974521324615,630.7692307692307,57.02307692307691,0.09040243902439024,71.15384615384609,10.638297872340424,54.78723404255319,13.428571428571427,85.9375,,,0.05889656045154816,0.01151882500072599,0.00040726423095853545,5.113070165388928,0.8316062829472471,0.16264323704699066,-4.463772625381144,2021-09-23 21:04:15,2021-09-23 21:04:15.006,0.99222195,1.1728370000000001,0.55342484,1.4132025,1.2410478999999999,0.966872,0.7074054,1.1553617,1.1771291000000002,0.43239468,0.74841946,1.1317296000000001,0.88480246,0.23775128,0.61547124,1.020524,0.9498485000000001,0.33390770000000003,0.84073967,0.9408179,826.4103,789.7436,809.8901400000003,787.326,1026.2638,-0.23199462890625,-0.05255126953125,0.99822998046875,-5.211334228515625,-5.420684814453125,10.370330810546877,67.0,34.0,33.0
636.4870423693952,54.52041260941089,,,,,,,31.12388658395441,31.20654181039425,0.08565832291958758,0.04889948186233643,630.7692307692307,57.02307692307691,0.09040243902439024,69.23076923076917,10.695187165775401,54.01069518716579,13.357142857142858,85.9375,,,0.06131170098032434,0.01216297213587427,0.0004272639450804777,5.040848593205896,0.8296359123778447,0.16458258902995732,-4.409359013240984,2021-09-23 21:04:16,2021-09-23 21:04:16.010,1.3426559999999998,1.1728370000000001,0.55342484,1.2068607,1.1175598999999998,0.966872,0.7074054,1.0207709,1.3588111,0.43239468,0.74841946,1.2138841,1.102903,0.23775128,0.61547124,1.1173205,0.8092238,0.33390770000000003,0.84073967,0.7724141,854.61536,808.6813400000003,795.38464,799.41394,771.6117,-0.1910400390625,-0.04193115234375,1.010009765625,2.3028564453125,0.261688232421875,5.54779052734375,60.0,24.0,36.0
635.5155482815057,54.81708380256737,,,,,,,31.248833158609962,31.321861892907854,0.08625608602464244,0.049170839711333215,630.7692307692307,57.02307692307691,0.09040243902439024,71.15384615384609,10.638297872340424,54.255319148936174,13.428571428571427,85.9375,,,0.06422796366172755,0.012918053125719338,0.00045253484559417263,4.971953825909894,0.8276953926338442,0.16647286391127564,-4.349129478845915,2021-09-23 21:04:17,2021-09-23 21:04:17.010,1.3951790000000002,1.1728370000000001,0.55342484,1.0456058000000001,1.1376865,0.966872,0.7074054,0.9833781999999999,1.3588111,0.43239468,0.74841946,1.2098657,1.1312698,0.23775128,0.61547124,1.1187528,0.74435437,0.33390770000000003,0.84073967,0.65162194,778.46155,788.1319,785.3113400000003,786.1172,907.3993,-0.491943359375,0.04351806640625,0.913330078125,-2.100982666015625,9.607696533203123,9.390869140625,40.0,19.0,21.0
634.0016366612111,55.20069555736204,,,,,,,31.213372041227718,31.291050744038355,0.0870671183879915,0.04923232092207845,630.7692307692307,57.02307692307691,0.09040243902439024,76.9230769230769,10.638297872340424,54.255319148936174,13.428571428571427,85.9375,,,0.06848486440669793,0.01401407909846446,0.0004906645628379309,4.886861557260789,0.8252221693899622,0.16886546911971867,-4.2676928048036515,2021-09-23 21:04:18,2021-09-23 21:04:18.000,1.3951790000000002,1.1728370000000001,0.88628316,0.18150322,1.1376865,0.966872,0.48172078,0.38797945,1.3588111,0.43239468,0.43101415,0.7435782,1.1312698,0.23775128,-0.14589834,0.83718115,0.74435437,0.33390770000000003,-0.033423312000000004,0.90533847,796.1905,801.4286,794.9817,796.1905,734.1392,-0.49859619140625,0.02008056640625,0.91021728515625,2.938385009765625,-12.6507568359375,-9.697418212890623,15.0,20.0,-5.0
632.6007326007326,56.46062679119918,,,,,,,31.069524811713535,31.14640886838729,0.08925159880716488,0.04911395641921132,630.7692307692307,57.02307692307691,0.09040243902439024,76.9230769230769,10.582010582010582,53.96825396825397,13.5,109.375,,,0.07224302159367628,0.014996838841911959,0.0005252550744356441,4.817216638467655,0.8231405060410958,0.17087471206255214,-4.199915843962073,2021-09-23 21:04:19,2021-09-23 21:04:19.001,0.6100169,0.50290775,0.6486049,0.3458895,0.6186725000000001,0.32180175,0.23668596,0.19516185,1.0213419,0.25591183,0.43338734,0.8611904,1.0042778,0.2399942,-0.13304125,0.8934662,1.0413661,0.41500092,0.012183207,0.81274647,779.2674,792.96704,801.8315,805.4579,728.4981700000003,-0.0540771484375,-0.10809326171875,1.14068603515625,12.56103515625,-14.75921630859375,4.14215087890625,0.0,22.0,-22.0
632.1194762684124,57.08152607616949,,,,,,,31.14232867020393,31.22263612626549,0.09030179929455512,0.049266522927036316,630.7692307692307,57.02307692307691,0.09040243902439024,76.9230769230769,10.638297872340424,53.723404255319146,13.428571428571427,164.0625,,,0.0751180893501471,0.01583205186594095,0.0005544303382753334,4.744684390009267,0.8209217099663597,0.17301924479844197,-4.145718794667724,2021-09-23 21:04:20,2021-09-23 21:04:20.002,0.98525316,0.6051508000000001,0.39437634,1.1512586999999999,0.9330125,0.76212966,0.37885746,1.0645685,1.1969338999999999,0.74044347,0.73889697,1.6727298,1.1162508,0.2335022,0.10695031,1.4264332,1.0905340000000001,0.31282306,-0.06050632,1.0649781999999999,826.8132,788.9377400000003,810.696,755.4945,762.3443,-0.1341552734375,-0.00244140625,1.0732421875,0.10467529296875,-3.372039794921875,-9.921722412109377,0.0,18.0,-18.0
631.4238952536825,57.653595397544954,,,,,,,31.142328670203945,31.22263612626549,0.09130727524079826,0.04932079527603578,630.7692307692307,57.02307692307691,0.09040243902439024,84.61538461538453,10.638297872340424,53.723404255319146,13.428571428571427,164.0625,,,0.07309264039724876,0.01571734402250576,0.0005483787072606366,4.650444775694098,0.8179720155947118,0.1758911362349478,-4.152990461566971,2021-09-23 21:04:21,2021-09-23 21:04:21.003,1.5559631999999999,0.84141946,0.7683579,1.2200365,1.305384,0.9198576999999999,0.57137233,1.1857003000000002,1.4763591,0.90602666,0.8732053,1.6668608,1.1846616,0.49425367,0.27250215,1.5199013000000001,0.75863236,0.36778444,-0.15054068,1.1173482,772.01465,776.04395,799.81683,753.4798599999997,706.7399,-0.2747802734375,-0.07305908203125,0.97119140625,-7.574005126953125,5.091705322265625,6.990814208984375,1.0,14.000000000000002,-13.000000000000002
631.0147299509001,57.76646409325561,,,,,,,31.147408570518326,31.228302211606728,0.0915453496588748,0.049360826446859546,630.7692307692307,57.02307692307691,0.09040243902439024,84.61538461538453,10.638297872340424,53.723404255319146,13.428571428571427,164.0625,,,0.07107122553086449,0.015538954692299694,0.0005387594793049165,4.5737455921718935,0.8155145177153648,0.1783034279630994,-4.1644052019228495,2021-09-23 21:04:22,2021-09-23 21:04:22.003,1.7075095,0.7388163000000001,0.85861754,1.2200365,1.4021791000000001,0.66748405,0.68270767,1.1857003000000002,1.4910762,0.9136334999999999,0.8997947000000001,1.6668608,1.1703069,0.80137867,0.31127083,1.5199013000000001,0.6830665,0.58682626,-0.038482,1.1173482,788.1319,792.5641,814.7253,812.3077,717.6189999999997,-0.41015625,-0.01043701171875,0.85638427734375,4.224395751953125,7.469329833984375,-3.3197021484375,0.0,14.000000000000002,-14.000000000000002
632.0376432078559,61.094367091455,,,,,,,44.69800432538093,44.81792326719146,0.09666254494174664,0.07072047813247298,626.9230769230769,62.72538461538455,0.10005276073619622,84.61538461538453,11.702127659574465,53.723404255319146,13.428571428571427,164.0625,,,0.06989346024878063,0.015607645848673876,0.0005340110101731922,4.478155189222162,0.8123829268616642,0.1814101773017769,-4.159994366290754,2021-09-23 21:04:23,2021-09-23 21:04:23.001,1.8711609,0.8913235999999999,0.9611703000000001,1.2200365,1.3124052,0.8340185999999999,0.8357623,1.1857003000000002,1.4030843000000002,0.9030082,0.75854117,1.6668608,1.2067108999999998,1.0740916999999999,0.38545630000000003,1.5199013000000001,0.72281164,0.7934998000000001,0.46369147,1.1173482,881.6117,818.3516,841.3186599999997,893.2967,734.1392,-0.47296142578125,0.0008544921875,0.90399169921875,5.166473388671875,-1.457977294921875,-9.61517333984375,0.0,19.0,-19.0
630.972730972731,61.8111484099261,,,,,,,44.972609062707136,45.09083002786106,0.09796167944474517,0.0712750438412381,623.0769230769231,57.02307692307691,0.09151851851851847,84.61538461538453,12.16931216931217,53.43915343915343,13.5,164.0625,,,0.06993534437311033,0.015892119564505775,0.0005356042315455763,4.4006303935258115,0.8097829993270512,0.18401522666352535,-4.141931917492407,2021-09-23 21:04:24,2021-09-23 21:04:24.001,1.8711609,1.0411431,1.0895133,1.2200365,1.3124052,0.9113826999999999,0.9400521999999999,1.1857003000000002,1.4030843000000002,0.87390256,0.75854117,1.6668608,1.2067108999999998,1.1264553999999998,0.44727707,1.5199013000000001,0.72281164,0.86319494,0.60048735,1.1173482,795.78754,790.54944,780.4762,796.99634,946.8865,-0.4166259765625,0.008056640625,0.93994140625,4.882354736328125,3.9776611328125,-9.697418212890623,8.0,35.0,-27.0
629.9145299145299,62.845836996826094,,,,,,,44.948107503240614,45.063927742842324,0.09976883213878766,0.07135588301057194,623.0769230769231,57.02307692307691,0.09151851851851847,84.61538461538453,12.16931216931217,52.9100529100529,13.5,164.0625,,,0.07084505538375928,0.016381870761166532,0.0005415064152376476,4.324601043227527,0.8071815038419019,0.18664877887544695,-4.111579996995262,2021-09-23 21:04:25,2021-09-23 21:04:25.028,1.8711609,0.7272899,1.3232187,1.2200365,1.3124052,0.42317834,0.96367604,1.1857003000000002,1.4030843000000002,0.98715997,0.84430665,1.6668608,1.2067108999999998,1.1268797,0.45275479999999996,1.5199013000000001,0.72281164,1.1537215,-0.0004307851,1.1173482,808.2784,794.9817,806.6667,796.99634,832.4542,-0.43597412109375,0.05657958984375,0.92315673828125,4.149627685546875,-0.725250244140625,13.017120361328125,12.0,48.0,-36.0
629.3040293040292,63.39552400733284,,,,,,,44.94460619008998,45.059837786940825,0.10073910392317732,0.07141954301452016,623.0769230769231,57.02307692307691,0.09151851851851847,84.61538461538453,12.16931216931217,52.9100529100529,13.5,164.0625,,,0.07317562571959674,0.017278334447140803,0.000554151535305138,4.235108768351555,0.8040560819366425,0.18985488352631089,-4.058301906412505,2021-09-23 21:04:26,2021-09-23 21:04:26.001,1.8711609,0.51770246,1.0501281999999998,1.2200365,1.3124052,0.38910338,0.7119849,1.1857003000000002,1.4030843000000002,0.96022165,0.7624562,1.6668608,1.2067108999999998,1.3607770000000001,0.55043924,1.5199013000000001,0.72281164,1.1937337,0.3923893,1.1173482,797.8022,817.5458,807.0696,794.9817,850.9889999999997,-0.37261962890625,0.0074462890625,0.9561767578125,3.30474853515625,-10.475006103515623,4.059906005859375,21.0,57.99999999999999,-36.99999999999999
627.6518218623482,64.36769282832799,,,,,,,44.853476114194635,44.97075755935545,0.10255318408435148,0.07146235309427901,619.2307692307693,62.72538461538471,0.1012956521739132,90.38461538461536,12.105263157894735,53.157894736842096,13.571428571428573,164.0625,,,0.0741666428913326,0.0177841459533126,0.0005543661770565049,4.1703797914185365,0.8017568628897829,0.19225032322945074,-4.029447895352536,2021-09-23 21:04:27,2021-09-23 21:04:27.029,1.8711609,0.19667502,0.6133304,1.373207,1.3124052,0.26120517,0.3521497,1.2388347,1.4030843000000002,0.73961943,0.5993776,1.1904266000000001,1.2067108999999998,1.1992770000000001,0.5557844,0.78482217,0.72281164,1.1154426000000002,0.5060452999999999,0.45057709999999995,820.3663,811.0989,795.78754,796.5934,841.7216,-0.1090087890625,-0.0025634765625,1.024169921875,0.994415283203125,-1.80938720703125,-1.457977294921875,33.0,65.0,-32.0
627.2469635627532,64.58951348924154,,,,,,,44.766141095953024,44.88457830681772,0.10297301898820536,0.07136924321113015,615.3846153846155,68.42769230769218,0.11119499999999978,92.30769230769226,12.105263157894735,52.631578947368425,13.571428571428573,164.0625,,,0.07282150823832483,0.01769882351502907,0.0005345062163501523,4.1144829867639485,0.7997544102220483,0.19437543253789394,-4.034257109688909,2021-09-23 21:04:28,2021-09-23 21:04:28.019,1.8711609,-0.1339775,0.15941878,1.1797792999999999,1.3124052,-0.3757025,-0.27113935,0.89056194,1.4030843000000002,0.40981558,0.3485511,0.91156274,1.2067108999999998,0.8203459999999999,0.7170179,0.69324857,0.72281164,1.1282003,0.5396335,0.47905597,768.7912,801.8315,794.17584,783.69965,803.8461,-0.1767578125,-0.0025634765625,1.01153564453125,1.95892333984375,-4.074859619140625,4.23187255859375,41.0,56.99999999999999,-15.999999999999993
626.923076923077,64.89015555271358,,,,,,,44.74165674144951,44.860418448673,0.10350576959328543,0.07136705983298694,615.3846153846155,68.42769230769218,0.11119499999999978,92.30769230769226,12.105263157894735,52.105263157894726,13.571428571428573,164.0625,,,0.07100085198280734,0.017491329406602717,0.0005057471344911637,4.05920272452279,0.7977809501907608,0.1965363654717565,-4.046049983314607,2021-09-23 21:04:29,2021-09-23 21:04:29.001,0.35084698,-0.1339775,0.15941878,-0.14933756,0.59144425,-0.3757025,-0.27113935,-0.105878755,0.9365979999999999,0.40981558,0.3485511,0.1908545,0.8934063,0.8203459999999999,0.7170179,0.8817136999999999,1.0285986999999999,1.1282003,0.5396335,0.6068199000000001,866.30035,886.4469,838.9011,836.08057,777.25275,-0.17254638671875,-0.00628662109375,1.00665283203125,1.5252685546875,-2.16827392578125,2.803802490234375,48.0,56.00000000000001,-8.000000000000009
626.7611336032389,65.05378678689671,,,,,,,44.68564212575699,44.8042549624521,0.10379358785842956,0.07129612818979379,615.3846153846155,68.42769230769218,0.11119499999999978,92.30769230769226,12.105263157894735,51.57894736842106,13.571428571428573,164.0625,,,0.06873275345049752,0.017063071748308508,0.0004753652931600115,4.028158262729635,0.7967057491445909,0.19778412296162184,-4.07083869754,2021-09-23 21:04:30,2021-09-23 21:04:30.001,0.5583411,-0.1339775,0.15941878,-0.28813383,0.82782507,-0.3757025,-0.27113935,-0.057256013,0.94674325,0.40981558,0.3485511,0.06351196,0.8864302,0.8203459999999999,0.7170179,0.8448870999999999,1.2130408000000001,1.1282003,0.5396335,0.6293594,849.7802,857.4359,816.7399,835.6777,971.0622599999999,-0.23846435546875,0.02691650390625,0.99896240234375,2.79632568359375,-10.415191650390623,-6.7889404296875,52.0,56.99999999999999,-4.999999999999994
627.085020242915,64.7498837339465,,,,,,,44.6716274971778,44.78998000585214,0.1032553507798101,0.07123695520564863,615.3846153846155,68.42769230769218,0.11119499999999978,92.30769230769226,12.105263157894735,51.57894736842106,13.571428571428573,164.0625,,,0.06518659409177899,0.016257526361574903,0.00043591765431173416,4.009625612285596,0.7961231528258925,0.19855298968226628,-4.119199316719905,2021-09-23 21:04:31,2021-09-23 21:04:31.001,0.69802034,-0.1339775,0.15941878,-0.28813383,1.0045403,-0.3757025,-0.27113935,-0.057256013,0.94674325,0.40981558,0.3485511,0.06351196,0.91779965,0.8203459999999999,0.7170179,0.8448870999999999,1.3056707,1.1282003,0.5396335,0.6293594,822.3810000000003,778.0586,806.6667,826.0073,921.9048,-0.11077880859375,0.01629638671875,1.028564453125,-2.385101318359375,-8.89739990234375,-2.37762451171875,57.99999999999999,52.0,5.999999999999992
627.4318274318275,64.74468611469531,,,,,,,44.578968150459566,44.697326525474864,0.10318999337299324,0.07104989929013955,615.3846153846155,68.42769230769218,0.11119499999999978,92.30769230769226,12.16931216931217,50.79365079365079,13.5,164.0625,,,0.061369046896213975,0.01532327188134326,0.0003913097700598839,4.004957124785695,0.7961359377147675,0.1987876306559384,-4.178382568194083,2021-09-23 21:04:32,2021-09-23 21:04:32.000,1.3958818000000002,-0.1339775,0.15941878,-0.28813383,1.3571707,-0.3757025,-0.27113935,-0.057256013,1.2616787,0.40981558,0.3485511,0.06351196,0.9057274,0.8203459999999999,0.7170179,0.8448870999999999,0.8023121999999999,1.1282003,0.5396335,0.6293594,755.4945,797.3993,809.0842,802.6374,739.3773,-0.06494140625,-0.012451171875,1.0284423828125,2.0635986328125,-1.79443359375,-3.768310546875,61.0,56.00000000000001,4.999999999999994
627.6518218623482,64.69275252829055,,,,,,,44.65760847047225,44.77614680179166,0.10307108220659077,0.07115028892605718,619.2307692307693,62.72538461538471,0.1012956521739132,90.38461538461536,12.63157894736842,51.05263157894736,13.571428571428573,164.0625,,,0.058855076418868925,0.014654236708026729,0.0003598373207325911,4.016249879915724,0.7967477094595259,0.1983810104654756,-4.223025790240752,2021-09-23 21:04:33,2021-09-23 21:04:33.001,0.8932945,0.7173931,1.0265347,1.2095148999999998,0.6768345,0.5890689,0.8773042999999999,1.035711,1.1304682,1.0551714,0.7830015,1.0309211,0.8555789,1.3875996000000002,0.7179327,1.0601691,0.6395542,1.1634955,0.5018716,0.66453177,789.7436,817.1429,798.60803,771.6117,626.1539,-0.10992431640625,-0.00177001953125,1.02276611328125,1.614990234375,-3.0804443359375,-1.27105712890625,62.0,55.00000000000001,6.999999999999992
627.2690272690272,64.68740561105831,,,,,,,44.80432929927869,44.92389230890072,0.10312545781622777,0.07142761295635072,615.3846153846155,68.42769230769218,0.11119499999999978,92.30769230769226,12.698412698412698,51.851851851851855,13.5,164.0625,,,0.0568262151432976,0.014066746292936659,0.0003324378588519827,4.039755460140187,0.7978363856953199,0.1974962082649512,-4.2639416859889945,2021-09-23 21:04:34,2021-09-23 21:04:34.000,0.5179183,0.62196124,0.91397244,1.0300494,0.2604801,0.3518788,0.78071654,0.80383426,0.7899831,0.83779454,0.8189877,1.0555062,0.74743277,1.161812,0.5941687,1.0080982,0.5340187,0.82072335,0.35173965,0.61116284,762.3443,800.2198,801.02563,803.4432400000003,764.35895,-0.1048583984375,-0.02496337890625,1.02423095703125,-1.308441162109375,-7.19268798828125,4.643096923828125,56.99999999999999,51.0,5.999999999999992
627.3684210526316,64.53059333322736,,,,,,,44.54881143174547,44.66622174481293,0.10285916722578188,0.07100901151033255,619.2307692307693,62.72538461538471,0.1012956521739132,88.46153846153845,12.105263157894735,51.57894736842106,13.571428571428573,164.0625,,,0.054935864129511534,0.013457734639035115,0.0003038107427593008,4.082103385377072,0.7996788309822717,0.19589872070533165,-4.308201272122169,2021-09-23 21:04:35,2021-09-23 21:04:35.013,1.0042384,0.9976564,0.9056146,1.2184788,0.965269,0.6395371999999999,0.6882309,0.9024536,0.7188959,0.9264228999999999,0.69958025,1.019475,0.505837,0.9893927,0.5781816,0.90917015,0.61185926,0.6494149,0.065085486,0.56836444,785.7143,801.4286,800.2198,786.5201400000003,747.4359,-0.14654541015625,-0.0048828125,1.01483154296875,3.147735595703125,0.58319091796875,-0.897216796875,50.0,49.0,1.0
627.48987854251,64.48595585527175,,,,,,,44.67513156648523,44.79332610696829,0.10276812114492627,0.07119657717866865,619.2307692307693,62.72538461538471,0.1012956521739132,88.46153846153845,12.63157894736842,51.57894736842106,13.571428571428573,109.375,,,0.05393227427211615,0.013083545274960928,0.00028573493424680486,4.122145270160898,0.8013525792644552,0.19440182884024765,-4.336399924192967,2021-09-23 21:04:36,2021-09-23 21:04:36.023,1.0893926999999999,1.1112083000000001,0.8664513,1.2067084,1.0212743,0.733775,0.5194340000000001,1.0568848,0.7840579000000001,0.841406,0.49924397,1.0400201,0.7564029999999999,0.7572435000000001,0.62571555,0.93137103,0.7361310999999999,0.45941275,-0.033357706,0.6381064000000001,815.12823,803.0403,792.1612,798.60803,987.1795,-0.1846923828125,-0.0048828125,1.0074462890625,0.3289794921875,-0.82244873046875,4.53094482421875,45.0,40.0,5.0
627.6113360323886,64.41190062725373,,,,,,,44.68564212575699,44.80403195123226,0.1026302377430762,0.07119954589770337,619.2307692307693,62.725384615384634,0.10129565217391306,82.69230769230762,12.63157894736842,51.57894736842106,13.571428571428573,109.375,,,0.053373857271697724,0.012820351386534428,0.0002725105800074768,4.163213289750996,0.8030162746620219,0.19288377000498352,-4.356721418619183,2021-09-23 21:04:37,2021-09-23 21:04:37.001,0.6776594,-0.042070374,0.0002535338,0.87693644,0.9224628,-0.24262623,-0.49289998,0.76575154,0.6496109999999999,0.14284737,-0.098874934,0.75771767,0.8159725,0.17614970000000002,0.10127526,0.8954603999999999,0.50200367,0.15103361,-0.17523333,0.6801535,813.91943,815.9341,802.6374,792.96704,723.2601,-0.1875,-0.00555419921875,0.99822998046875,1.98883056640625,-3.5589599609375,4.0374755859375,38.0,34.0,4.0
628.1237281237281,64.34047762596515,,,,,,,44.75864465028381,44.878141851039054,0.10243280860947088,0.07125768800994448,623.0769230769231,57.02307692307691,0.09151851851851847,84.61538461538453,12.698412698412698,51.32275132275132,12.6,109.375,,,0.0532603642898107,0.012680179071621108,0.00026465300995052164,4.200284868926665,0.8044740776999324,0.19152845647478825,-4.3677152077051815,2021-09-23 21:04:38,2021-09-23 21:04:38.000,0.7352814999999999,0.8799707,0.79471034,1.1927816,0.9795815999999999,0.9291067,0.63741046,0.9325218000000001,0.6496109999999999,0.62165505,0.31068507,0.957043,0.8303099,0.23734923,0.12196206,0.72113985,0.50674015,0.023478016,-0.07082004,0.5050587000000001,845.34796,805.4579,800.6227,842.1245,990.0,-0.2232666015625,-0.02392578125,0.99530029296875,-1.00189208984375,-4.553375244140625,3.0804443359375,32.0,21.0,11.0
627.5708502024291,64.53857246072167,,,,,,,44.63657167486175,44.747686047556975,0.10283870329526,0.07112594802716503,619.2307692307693,62.725384615384634,0.10129565217391306,82.69230769230762,12.63157894736842,51.57894736842106,12.666666666666664,109.375,,,0.053709516774424614,0.012691354458132721,0.00026352683042418307,4.231976732791284,0.8056701678110447,0.19037679521447867,-4.366834268662121,2021-09-23 21:04:39,2021-09-23 21:04:39.029,0.7991794,1.0729525,0.8499667,1.3542082,1.0325866,0.80673194,0.71382296,1.0948997999999999,0.6496109999999999,0.78425306,0.70469034,0.9275264999999999,0.83863795,0.20846196,0.12524363,0.79107577,0.50644827,0.15186119,-0.08835666,0.6900076999999999,777.25275,792.5641,805.05493,821.1722,822.7839,-0.1798095703125,-0.01593017578125,1.0101318359375,-3.910369873046875,-11.46942138671875,6.14593505859375,27.0,12.0,15.0
626.8825910931174,64.45931190949061,,,,,,,44.63657167486175,44.747686047556975,0.10282517464249663,0.07120403774018891,615.3846153846155,68.42769230769218,0.11119499999999978,82.69230769230774,12.63157894736842,51.57894736842106,12.666666666666664,109.375,,,0.054498110706274944,0.01285983990288347,0.00027059631788320897,4.237852968453769,0.8058447679656354,0.1901540176037909,-4.353646009481612,2021-09-23 21:04:40,2021-09-23 21:04:40.046,0.7991794,1.0735546,1.0134524,0.32485813,1.0325866,0.80846757,0.9330393,0.6444310000000001,0.6496109999999999,0.84163916,0.91075873,0.8756695,0.83863795,0.1167771,0.09800608,0.85598934,0.50644827,0.21796995,-0.11814749,0.93551445,779.2674,799.0110000000003,796.5934,778.0586,686.1905,-0.15338134765625,-0.004638671875,1.02789306640625,1.293487548828125,-1.069183349609375,5.27862548828125,9.0,14.000000000000002,-5.000000000000002
625.6275303643724,64.3295384000161,,,,,,,44.41860806287734,44.534716350592184,0.10282402112731497,0.0709984869703663,615.3846153846155,68.42769230769218,0.11119499999999978,84.61538461538464,12.105263157894735,51.57894736842106,12.666666666666664,109.375,,,0.05584648197145198,0.013266286486765607,0.00029096596593445755,4.2096544520702315,0.8046610522447301,0.19114658017809813,-4.32252931254693,2021-09-23 21:04:41,2021-09-23 21:04:41.001,1.0982236,0.8798703999999999,0.89483887,0.8334951999999999,1.2609397,0.7606785,0.8368985999999999,1.0730495,0.96841687,0.7825026999999999,0.896868,1.1457503,0.928791,0.08847527,0.0514062,0.917479,1.145413,-0.03452212,-0.30855906,0.97996426,810.696,809.0842,804.2491,775.2381,1084.2858,-0.1854248046875,-0.01336669921875,1.02349853515625,-1.248626708984375,-5.72723388671875,1.51031494140625,0.0,13.0,-13.0
625.0906161900926,64.20078816095017,,,,,,,44.312106167913505,44.42767723146099,0.1027063700815922,0.07088909194957105,615.3846153846155,68.42769230769218,0.11119499999999978,84.61538461538464,12.041884816753926,51.30890052356021,12.733333333333333,109.375,,,0.05701161125684037,0.013726362401131365,0.0003173000941019141,4.1534391698809685,0.8023558033956144,0.1931786576324432,-4.288437032313901,2021-09-23 21:04:42,2021-09-23 21:04:42.019,0.8936579,0.37071598,0.6536278,0.8818535,0.95854765,0.23220038,0.39456406,0.91636616,0.9961851,0.26361385,0.56955606,1.2096776000000002,1.0752532,0.08988014,-0.029207538999999998,0.94032484,1.1231191,0.01481503,-0.2689788,1.0238025,776.4469,793.36993,792.1612,799.41394,890.07324,0.03436279296875,-0.0234375,1.01812744140625,0.560760498046875,-17.645263671875,5.203857421875,0.0,24.0,-24.0
624.4534412955467,64.10480042368637,,,,,,,44.397458022127644,44.512686189314586,0.1026574539979936,0.07109810769881696,615.3846153846155,68.42769230769218,0.11119499999999978,84.61538461538464,12.105263157894735,51.05263157894736,11.875,109.375,,,0.05542125275000688,0.013720072223017785,0.00034587587484818927,4.039428645064141,0.7975749788992031,0.19744747314048386,-4.288895392629901,2021-09-23 21:04:43,2021-09-23 21:04:43.006,1.0614928,0.67800456,0.66470677,1.1417351999999998,1.0178907,0.18565655,0.43422043,0.8956729999999999,1.0217804,0.52821213,0.57219404,1.2096776000000002,1.0575073,0.43112436,0.25775307,0.91325194,1.0896856000000001,0.45022252,0.22951128,0.97946924,796.5934,792.5641,817.9487,811.9048,766.3736,0.13482666015625,-0.00616455078125,1.017822265625,1.517791748046875,-1.323394775390625,-0.844879150390625,6.0,31.0,-25.0
624.0434957712445,63.65045930345077,,,,,,,44.298047758242454,44.41283918239382,0.101996831526601,0.07098551312275961,615.3846153846155,68.42769230769218,0.11119499999999978,84.61538461538464,12.041884816753926,50.785340314136135,11.9375,109.375,,,0.05402934806698025,0.013800448585126685,0.0003784033541775925,3.915042886737024,0.7921239390865341,0.20232829166955213,-4.283054181178692,2021-09-23 21:04:44,2021-09-23 21:04:44.000,1.3812889,0.6246858000000001,0.4567575,0.85970306,1.4374257,0.57431614,0.25174633,1.0803682,1.1464688,0.6976795,0.34032455,1.1478552,1.0157356,0.93143666,0.34213309999999997,0.8178751999999999,0.606457,0.466661,0.3546608,0.68497634,798.60803,796.1905,805.8608,824.3956,669.67035,0.08160400390625,-0.01983642578125,1.0203857421875,0.889739990234375,-1.4654541015625,1.734619140625,16.0,28.000000000000004,-12.000000000000005
622.9963753523963,63.44216133467715,,,,,,,44.132525992898465,44.24845437990729,0.10183391724998604,0.07083913765619425,615.3846153846155,57.02307692307708,0.09266250000000023,84.61538461538464,12.041884816753926,50.785340314136135,11.9375,109.375,,,0.052566320699828216,0.01396295676600372,0.0004218643213695451,3.7646983787713193,0.7851444993560499,0.208554423319378,-4.271347401352611,2021-09-23 21:04:45,2021-09-23 21:04:45.015,1.1532948,0.045398857,-0.29187527,1.0013655000000001,1.1959729,0.13985959,-0.17061372,1.0959663,1.1522883999999998,0.36688605,0.21118526,1.0845926000000001,0.67338943,0.55958337,0.2545498,0.8393293,0.34041074,-0.019151412,0.09132375,0.5075544,786.5201400000003,805.05493,801.02563,806.26373,766.3736,0.1572265625,-0.0126953125,1.02374267578125,4.957122802734375,-4.85992431640625,5.091705322265625,21.0,22.0,-1.0
622.754732178816,63.55909547586198,,,,,,,44.12899750790439,44.24512135025487,0.10206120032759833,0.07086095894207242,615.3846153846155,68.42769230769218,0.11119499999999978,84.61538461538464,12.041884816753926,50.785340314136135,12.733333333333333,109.375,,,0.051040105229914416,0.014203246205328918,0.0004777779276507402,3.593552100136423,0.7766163747443372,0.2161138486665754,-4.254284734492215,2021-09-23 21:04:46,2021-09-23 21:04:46.006,1.1286392,-0.21114074,0.6868917,1.2250917,1.0324712999999999,-0.17002761,0.54292,1.0757961,0.49528313,0.21033475,0.47534832,0.72251034,0.6304668000000001,0.10364498,0.17403468,0.7780064999999999,0.27687502,-0.33141646,-0.100993104,0.48879567,775.64105,807.8755,804.65204,794.57874,672.8938,0.1317138671875,0.004150390625,1.02044677734375,2.572021484375,-1.5850830078125,-4.852447509765625,28.000000000000004,12.0,16.000000000000004
622.754732178816,63.534591547419815,,,,,,,44.044229065601584,44.159680286804935,0.10202185268851023,0.07072484043839405,615.3846153846155,68.42769230769218,0.11119499999999978,84.61538461538464,12.041884816753926,50.785340314136135,12.733333333333333,93.75,,,0.04915538735686385,0.014638860842374469,0.0005706565193704332,3.3578697062667544,0.7636985958693165,0.2274354464808549,-4.224075584789648,2021-09-23 21:04:47,2021-09-23 21:04:47.014,1.1286392,0.8729950000000001,1.0772728999999999,1.1720628999999998,1.0324712999999999,0.51377714,0.8744909,1.028799,0.49528313,0.64736086,0.47534832,0.6415515,0.6304668000000001,0.6401213000000001,0.17740865,0.67818964,0.27687502,0.38877082,-0.09211583400000001,0.52754265,769.19415,801.4286,811.0989,765.16486,595.9341,0.052734375,0.006103515625,1.0291748046875,3.33465576171875,-1.607513427734375,2.729034423828125,32.0,10.0,22.0
623.6437246963562,63.27665356611378,,,,,,,44.25266220403317,44.36867928847922,0.10146282414197677,0.07095824178392751,615.3846153846155,57.02307692307708,0.09266250000000023,84.61538461538464,12.105263157894735,51.05263157894736,12.666666666666664,93.75,,,0.04773359730178964,0.015109145922034304,0.0006670939049306009,3.1592518563327743,0.7515937602708465,0.2379024511022329,-4.192455028316586,2021-09-23 21:04:48,2021-09-23 21:04:48.004,1.1286392,1.1028905,0.9194154,1.4910636,1.0324712999999999,0.73837185,0.46486697,1.2489998,0.49528313,0.64458686,0.3782029000000001,1.5115477,0.6304668000000001,1.0005442,0.9284094,1.3670553,0.27687502,0.7682404,0.7926333000000001,0.8369023000000001,826.4103,882.8205,838.0952,828.8278,739.3773,-0.089599609375,0.0108642578125,1.0224609375,3.282318115234375,17.009735107421875,-7.91046142578125,41.0,15.0,26.0
624.3254128070881,63.191287126696274,,,,,,,44.220646614952784,44.33329692740393,0.10121530508036823,0.07082948364399934,615.3846153846155,57.02307692307708,0.09266250000000023,80.76923076923083,12.041884816753926,51.30890052356021,12.733333333333333,93.75,,,0.04651349435675403,0.015729276391539617,0.0007887110767572169,2.9571286815058118,0.7379406767852309,0.2495463526495781,-4.152231564779372,2021-09-23 21:04:49,2021-09-23 21:04:49.009,1.1286392,1.1028905,0.9194154,1.392867,1.0324712999999999,0.73837185,0.46486697,1.0765617,0.49528313,0.64458686,0.3782029000000001,1.3784976999999998,0.6304668000000001,1.0005442,0.9284094,1.375315,0.27687502,0.7682404,0.7926333000000001,0.8657843000000001,744.21246,717.6189999999997,783.2967,755.8974599999997,683.7729,-0.25030517578125,0.02447509765625,0.99114990234375,-1.054229736328125,0.874786376953125,5.869293212890625,49.0,25.0,24.0
625.1417004048583,63.50468563517519,,,,,,,44.19248577676578,44.30866042648214,0.10158446572040848,0.07069194991814744,615.3846153846155,62.725384615384634,0.10192875,76.9230769230769,12.105263157894735,51.05263157894736,12.666666666666664,93.75,,,0.0453568512790581,0.0167491336801737,0.0009831670632321464,2.7080117781105266,0.7189326504643466,0.26548357591190785,-4.089408742635262,2021-09-23 21:04:50,2021-09-23 21:04:50.009,1.1286392,1.1028905,0.9194154,1.392867,1.0324712999999999,0.73837185,0.46486697,1.0765617,0.49528313,0.64458686,0.3782029000000001,1.3784976999999998,0.6304668000000001,1.0005442,0.9284094,1.375315,0.27687502,0.7682404,0.7926333000000001,0.8657843000000001,811.5018299999997,817.5458,824.7985,812.71063,514.94507,-0.25927734375,0.01837158203125,0.9893798828125,1.3458251953125,-4.179534912109375,-0.83740234375,57.99999999999999,33.0,24.999999999999996
625.6680161943319,64.03278767763237,,,,,,,44.06833438949389,44.18521236355962,0.10234307335560498,0.07043405328203049,615.3846153846155,68.42769230769218,0.11119499999999978,76.9230769230769,12.105263157894735,50.526315789473685,12.666666666666664,93.75,,,0.04480711812285487,0.017799357270341085,0.0011800272492080712,2.517344724436572,0.7024545360959792,0.27904582526066285,-4.028592930743826,2021-09-23 21:04:51,2021-09-23 21:04:51.024,1.1286392,1.1028905,0.9194154,1.392867,1.0324712999999999,0.73837185,0.46486697,1.0765617,0.49528313,0.64458686,0.3782029000000001,1.3784976999999998,0.6304668000000001,1.0005442,0.9284094,1.375315,0.27687502,0.7682404,0.7926333000000001,0.8657843000000001,784.5055,777.25275,806.26373,779.67035,995.2381,-0.25048828125,0.0035400390625,0.98162841796875,3.3795166015625,-5.084228515625,-7.095489501953125,68.0,35.0,33.0
625.7894736842105,64.19620433886277,,,,,,,43.8404054811356,43.956374101410866,0.10258434671475128,0.07005615678230248,615.3846153846155,68.42769230769218,0.11119499999999978,76.9230769230769,11.578947368421053,50.0,12.666666666666664,93.75,,,0.04473235736893751,0.019488136415292283,0.0014905515273438814,2.295363518383223,0.6807433538278961,0.2965732217907641,-3.9379493875154656,2021-09-23 21:04:52,2021-09-23 21:04:52.021,0.75547624,1.1028905,0.45018718,0.37947428,0.27383542,0.73837185,0.74667436,-0.012426439,0.6127118,0.64458686,0.90189695,0.46665367,1.0214628000000001,1.0005442,0.8697988000000001,1.0897356000000002,1.1320881,0.7682404,0.76666397,0.89642173,816.7399,798.20514,794.17584,821.9780000000003,723.663,-0.19464111328125,-0.0137939453125,1.00579833984375,2.639312744140625,-2.026214599609375,1.039276123046875,76.0,31.0,45.0
624.6642246642248,62.76135680409837,,,,,,,43.813408394352344,43.92992142943913,0.1004721485976477,0.07013913501754218,615.3846153846155,68.42769230769218,0.11119499999999978,76.9230769230769,11.640211640211643,49.2063492063492,12.6,93.75,,,0.045263511076172436,0.021210848613609886,0.0018018471857198016,2.133979262250226,0.6629470667388999,0.3106623754346326,-3.85324250113474,2021-09-23 21:04:53,2021-09-23 21:04:53.020,0.7334385,1.1028905,0.7746503,0.39146817,0.20753205,0.73837185,0.955176,-0.04403484,0.59700614,0.64458686,1.1384961999999998,0.4452475,1.0202681999999998,1.0005442,0.83390737,1.1005049,1.1208755,0.7682404,0.63748443,0.8542735,796.99634,785.3113400000003,816.337,794.9817,682.1612,-0.19525146484375,-0.00067138671875,1.00506591796875,1.457977294921875,-0.067291259765625,0.418701171875,78.0,20.0,58.0
625.2226720647774,63.11626027892918,,,,,,,43.87252953586986,43.98898132944204,0.1009500504364146,0.07017104704629833,615.3846153846155,68.42769230769218,0.11119499999999978,76.9230769230769,12.105263157894735,49.47368421052632,12.666666666666664,93.75,,,0.04635992818438005,0.023303194138180317,0.0021782579775922514,1.9894237635184624,0.6453095415300862,0.3243700780917598,-3.7591648403305618,2021-09-23 21:04:54,2021-09-23 21:04:54.002,0.7334385,1.1028905,0.6357416,0.39146817,0.20753205,0.73837185,0.45964026,-0.04403484,0.59700614,0.64458686,0.53372264,0.4452475,1.0202681999999998,1.0005442,0.6465316999999999,1.1005049,1.1208755,0.7682404,0.56615245,0.8542735,826.4103,848.5714,762.3443,820.7692,795.38464,-0.35284423828125,0.006103515625,0.968994140625,1.4056396484375,-3.96270751953125,0.575714111328125,80.0,25.0,55.0
625.3441295546559,63.38671045581617,,,,,,,43.64716465015865,43.76079132881073,0.10136292556381324,0.06979703268541491,615.3846153846155,68.42769230769218,0.11119499999999978,76.9230769230769,11.578947368421053,48.94736842105264,12.666666666666664,93.75,,,0.04748545971248912,0.0255037437026379,0.0025975947654289285,1.861901541442232,0.6282242515294734,0.3374100281601625,-3.668930025725411,2021-09-23 21:04:55,2021-09-23 21:04:55.000,0.7334385,1.1028905,0.49430159999999995,0.39146817,0.20753205,0.73837185,0.3029145,-0.04403484,0.59700614,0.64458686,0.32284582,0.4452475,1.0202681999999998,1.0005442,0.66831535,1.1005049,1.1208755,0.7682404,0.62151855,0.8542735,830.0366,788.1319,782.0879,819.9634,933.1868,-0.3460693359375,0.001220703125,0.95855712890625,1.435546875,-4.478607177734375,1.00189208984375,80.0,34.0,46.0
625.2747252747254,63.65175437885869,,,,,,,43.57570134203908,43.686491746352786,0.10179806060590756,0.06969048896529974,615.3846153846155,68.42769230769218,0.11119499999999978,76.9230769230769,11.640211640211643,48.67724867724868,12.6,93.75,,,0.04947589390068431,0.0286558418060794,0.003204764708664532,1.7265552425749324,0.6082864845178354,0.3523122049721707,-3.5523979541257176,2021-09-23 21:04:56,2021-09-23 21:04:56.000,0.7850008,1.1028905,-0.11086424,0.42890418,0.40531772,0.73837185,-0.029840492000000007,0.25076234,0.64104664,0.64458686,0.05932939,0.74890137,1.1411563999999998,1.0005442,1.0146953,1.3648912,1.3257348999999998,0.7682404,1.2109413,1.3387031999999999,843.7362699999999,771.6117,840.9158,835.6777,870.7326,-0.33184814453125,0.0093994140625,0.961669921875,2.58697509765625,-9.443206787109377,-0.201873779296875,83.0,42.0,41.0
626.0323886639676,63.63677568575977,,,,,,,43.44225569117322,43.55695218661955,0.10165093186563193,0.06939298425738723,615.3846153846155,68.42769230769218,0.11119499999999978,76.9230769230769,11.578947368421053,48.42105263157895,12.666666666666664,93.75,,,0.051832211528719925,0.031668450725419885,0.0037757853031613413,1.6367144694929714,0.5938854407964943,0.36285219680404657,-3.4524343389392005,2021-09-23 21:04:57,2021-09-23 21:04:57.000,0.8381844999999999,1.1028905,0.048006207,0.8483712999999999,0.4548744000000001,0.73837185,0.016637601000000002,0.61002517,0.64104664,0.64458686,0.44665197,0.8939024,1.13737,1.0005442,1.2645465,1.3253046,1.3076296,0.7682404,1.147364,1.4219879,798.20514,807.0696,816.7399,798.20514,817.1429,-0.168212890625,-0.00067138671875,1.00927734375,2.70660400390625,-0.515899658203125,1.33087158203125,84.0,56.00000000000001,27.999999999999996
626.4777327935223,63.73487504461048,,,,,,,43.3845634270855,43.49971830805526,0.10173526002338623,0.06925156498959624,615.3846153846155,68.42769230769218,0.11119499999999978,76.9230769230769,11.578947368421053,47.89473684210525,12.666666666666664,93.75,,,0.054951486568122175,0.03517640908071255,0.00442948850052044,1.562168737634235,0.5811443184735872,0.3720112331486535,-3.3473796176308666,2021-09-23 21:04:58,2021-09-23 21:04:58.004,0.8381844999999999,1.1028905,0.15384409,0.96836185,0.4548744000000001,0.73837185,0.063163795,0.7635074000000001,0.64104664,0.64458686,0.43293867,0.8528448000000001,1.13737,1.0005442,1.2995851,1.3863555,1.3076296,0.7682404,0.8751555,1.435028,781.28204,832.8571,782.49084,790.14655,673.2967,-0.21331787109375,0.00958251953125,1.00616455078125,0.657958984375,-5.443115234375,2.9608154296875,90.0,65.0,25.0
626.5991902834007,63.7945301243818,,,,,,,43.38817144101558,43.50324021148909,0.10181074459341154,0.06924389963126476,615.3846153846155,68.42769230769218,0.11119499999999978,82.69230769230762,11.578947368421053,47.89473684210525,12.666666666666664,93.75,,,0.06008129188795484,0.040362259356204855,0.0053737426758524755,1.4885512567006136,0.5677832957377515,0.3814334865406301,-3.2098601049791933,2021-09-23 21:04:59,2021-09-23 21:04:59.024,0.29967684,1.1028905,0.15384409,0.96836185,0.46486676,0.73837185,0.063163795,0.7635074000000001,0.6479035,0.64458686,0.43293867,0.8528448000000001,1.316445,1.0005442,1.2995851,1.3863555,1.5199033000000002,0.7682404,0.8751555,1.435028,798.60803,765.16486,828.0219999999997,806.26373,593.1135,-0.13720703125,0.02203369140625,1.01312255859375,1.9140625,-22.00424194335937,3.87298583984375,94.0,72.0,22.0
626.9635627530364,63.75116072167072,,,,,,,43.11673257893504,43.23094448681701,0.1016824015126738,0.06877071514268987,619.2307692307693,62.725384615384634,0.10129565217391306,82.69230769230762,11.052631578947368,46.842105263157904,12.666666666666664,93.75,,,0.06530208388536184,0.045238689450989265,0.0062376457776129705,1.4435007883265247,0.559196505491597,0.3873891237287672,-3.0958025969648464,2021-09-23 21:05:00,2021-09-23 21:05:00.004,0.36816064,1.1028905,0.15384409,0.96836185,0.51899385,0.73837185,0.063163795,0.7635074000000001,0.6479035,0.64458686,0.43293867,0.8528448000000001,1.3097166999999998,1.0005442,1.2995851,1.3863555,1.4985559,0.7682404,0.8751555,1.435028,799.81683,815.12823,804.65204,822.3810000000003,691.8315,0.08123779296875,0.03094482421875,1.0130615234375,1.158905029296875,-6.587066650390625,-1.016845703125,94.0,78.0,16.0
627.3911273911274,63.86890102281175,,,,,,,43.162033059414405,43.27633283897256,0.10180077185406973,0.06879605269346817,623.0769230769231,68.42769230769218,0.10982222222222203,84.61538461538453,11.111111111111109,46.56084656084657,12.6,93.75,,,0.07014297808539356,0.0500231599554182,0.0071286539678480235,1.4022100592586837,0.551027869864635,0.39297098621297216,-2.9952691816892183,2021-09-23 21:05:01,2021-09-23 21:05:01.000,0.7882819999999999,0.342514,0.2593437,0.5199376,0.5524766,-0.01867592,0.098259926,0.5479648,0.48182790000000003,0.1250316,0.67022014,0.79996395,0.9438109,1.0881381,0.6534813,1.2131593,0.49251629999999996,0.68568563,0.5382844,0.7208060000000001,792.96704,811.0989,797.8022,768.7912,706.337,0.0701904296875,0.02362060546875,1.024658203125,1.92901611328125,-2.13836669921875,0.3289794921875,90.0,77.0,13.0
627.9757085020242,63.816068214589215,,,,,,,43.051332592994406,43.164444405991546,0.1016218738250502,0.06855572916297865,623.0769230769231,68.42769230769218,0.10982222222222203,84.61538461538453,11.052631578947368,46.31578947368421,13.571428571428573,93.75,,,0.0721611513867262,0.052304005050290335,0.007594492522849992,1.3796486773306025,0.5464284658870802,0.3960634869337396,-2.9506823324438027,2021-09-23 21:05:02,2021-09-23 21:05:02.024,0.68622327,0.39221656,-0.09789317,0.4465988,0.631099,-0.049341254,-0.36634976,0.51158834,0.49996229999999997,0.5090467000000001,0.5097688,0.8196648000000001,0.8005699000000001,0.9146771999999999,0.6728978,0.9607385,0.53373283,0.7841563,0.54924756,0.66328424,824.7985,801.4286,806.6667,831.2454,1124.5787,0.0400390625,0.0255126953125,1.03204345703125,2.04864501953125,-2.40753173828125,-5.24871826171875,80.0,77.0,3.0
628.6528286528287,64.1127209889066,,,,,,,43.1365031039579,43.24787377971319,0.10198430368363558,0.06861736897994597,623.0769230769231,68.42769230769218,0.10982222222222203,84.61538461538453,11.111111111111109,46.56084656084657,13.5,93.75,,,0.0726815658364798,0.053244050460308806,0.007828557721628337,1.3650645510273651,0.5433966182354212,0.3980739356438888,-2.932869209079595,2021-09-23 21:05:03,2021-09-23 21:05:03.029,0.48989555,0.45800242,0.6651375,0.60706586,0.49866435,0.041000478,0.34273723,0.57256466,0.46258298,0.5468338,1.0280610000000001,0.8726171999999999,0.69148445,0.6973381999999999,0.64475715,0.813204,0.49832502,0.6560170999999999,0.36235124,0.56491125,811.9048,800.6227,803.0403,799.0110000000003,750.2564,0.0277099609375,0.0057373046875,1.0218505859375,1.8243408203125,-3.93280029296875,0.844879150390625,68.0,74.0,-6.0
629.3040293040292,64.36614813053069,,,,,,,43.14744636313458,43.25828305761637,0.10228148102232176,0.06856375353396821,623.0769230769231,68.42769230769218,0.10982222222222203,84.61538461538453,11.111111111111109,46.56084656084657,13.5,93.75,,,0.06932004439478369,0.05107829775643655,0.007561796138222528,1.3571330181231116,0.541731552665123,0.3991735116829794,-2.9743955734232754,2021-09-23 21:05:04,2021-09-23 21:05:04.014,0.16035801,0.06859497,-0.28661135,0.36005998,-0.031031562000000002,-0.11859835,-0.41694734,0.15836728,0.21027733,0.45740363,0.48482364,0.43317372,0.55002755,0.70809686,0.63387156,0.75898135,0.3352417,0.5213919,0.36877906,0.5315801,804.65204,808.6813400000003,804.65204,810.696,840.1098599999997,0.006591796875,0.0167236328125,1.026611328125,1.921539306640625,-3.03558349609375,0.291595458984375,56.99999999999999,57.99999999999999,-1.0
630.8506308506308,65.39659762158351,,,,,,,43.14744636313458,43.25828305761637,0.10366415506853592,0.06839566175111074,630.7692307692307,68.42769230769218,0.1084829268292681,84.61538461538453,11.111111111111109,46.56084656084657,13.5,164.0625,,,0.058350270990635535,0.04307691002195777,0.006384893247045379,1.3545602727979424,0.5412220420702913,0.3995555258330129,-3.1447681557762195,2021-09-23 21:05:05,2021-09-23 21:05:05.005,0.047949355,-0.05907876400000001,0.22396256,0.046390347,-0.2152879,-0.27704278,0.031648602000000005,-0.0811369,0.3161933,0.41665754,0.55745393,0.45523316,0.49574596,0.8520110999999999,0.64425135,0.7148326,0.50587636,0.52053726,0.2284348,0.64996254,828.4249,815.5311,797.3993,818.7546,870.7326,0.000732421875,0.01409912109375,1.0228271484375,2.130889892578125,-2.7813720703125,0.37384033203125,49.0,48.0,1.0
631.1374795417348,65.75576213587372,,,,,,,43.34669011693875,43.462744145798816,0.10418611517671014,0.06868026622093894,630.7692307692307,68.42769230769235,0.10848292682926836,94.23076923076916,11.170212765957446,46.80851063829788,13.428571428571427,164.0625,,,0.05303236508137305,0.0390786972847867,0.005765865168869325,1.3570658380677008,0.5418270313235297,0.399263629018196,-3.2421777869387345,2021-09-23 21:05:06,2021-09-23 21:05:06.016,1.7267211999999998,0.27439582,0.90008193,1.8428535,1.7286728999999998,-0.2095123,0.77022505,1.8343154,1.4566245,0.59447116,0.8875363000000002,1.5114163999999999,1.2867861999999999,0.9998843000000001,0.8336244,1.1014853,0.26640159999999996,0.5781755000000001,0.25666055,0.43235958,828.4249,794.9817,803.0403,807.0696,750.65936,-0.01568603515625,0.02410888671875,1.02435302734375,2.250518798828125,-3.5589599609375,1.024322509765625,47.0,56.00000000000001,-9.000000000000009
631.6646316646318,65.90826976271207,,,,,,,43.191191673150165,43.306502730710214,0.10434060490140692,0.06837677702379508,630.7692307692307,79.83230769230764,0.12656341463414628,100.0,11.111111111111109,46.03174603174603,13.5,164.0625,,,0.049029755853328284,0.035984501134564265,0.005261101413303225,1.3625242620421831,0.543113389098202,0.3986082334300389,-3.3246669572679908,2021-09-23 21:05:07,2021-09-23 21:05:07.001,1.2055109,0.5077436,0.48896188,1.0099455,0.9852866,0.26313812,0.15386912,0.58885634,1.2609968,0.87913436,0.77938986,1.2207264,0.811782,0.9484425,0.64030766,0.91069835,0.43681204,0.49561009999999994,0.33966756,0.5181454000000001,832.0513,794.17584,796.99634,825.6044,966.6300699999999,-0.009521484375,0.01739501953125,1.0281982421875,2.61688232421875,-4.403839111328125,-0.456085205078125,45.0,63.0,-18.0
631.0965630114566,65.66689514331807,,,,,,,43.24437102943844,43.359207996889744,0.10405205636039247,0.06852258998699919,630.7692307692307,74.13,0.11752317073170733,96.15384615384608,11.170212765957446,45.21276595744681,13.428571428571427,164.0625,,,0.04714306163100766,0.034353158354382365,0.00493547646932925,1.372306474551377,0.5454371898821337,0.3974601883740608,-3.371061318270349,2021-09-23 21:05:08,2021-09-23 21:05:08.001,0.593974,0.66348535,0.7029708,0.55666894,0.6814488000000001,0.34725207,0.38310596,0.50094056,1.1134231,0.90640026,0.81745946,0.92259675,0.48316392,0.78250194,0.66992676,0.91857904,0.5080589,0.35465586,0.4006696,0.40497497,803.4432400000003,801.8315,784.90845,799.81683,1057.6923,-0.025634765625,0.023193359375,1.021728515625,1.831817626953125,-2.85614013671875,0.037384033203125,45.0,75.0,-30.0
630.932030932031,65.1263681797053,,,,,,,43.191191673150165,43.30494809545187,0.10322247878824403,0.06845617206872012,630.7692307692307,68.42769230769235,0.10848292682926836,92.30769230769226,11.111111111111109,44.97354497354497,13.5,164.0625,,,0.046971765406741466,0.033997302016265864,0.0047945342000335215,1.3816321478765592,0.5476888157425778,0.396407116455943,-3.3814741099773187,2021-09-23 21:05:09,2021-09-23 21:05:09.015,0.5461575,0.30032143,0.8186179,0.70714504,0.4882665,0.0796413,0.6106862,0.65241057,0.5622571,0.5117763,0.88021004,0.9875871999999999,0.56452787,0.88353705,0.6436704000000001,0.81724185,0.3225083,0.41048729999999994,0.39282095,0.41240326,820.3663,803.4432400000003,808.6813400000003,815.12823,766.3736,-0.047607421875,0.02288818359375,1.026611328125,1.1663818359375,-1.577606201171875,-5.87677001953125,44.0,84.0,-40.0
630.5250305250306,64.78693209672245,,,,,,,43.18025950043597,43.29276170822797,0.10275076953372518,0.06848302194201597,630.7692307692307,68.42769230769235,0.10848292682926836,92.30769230769226,11.111111111111109,44.97354497354497,13.5,164.0625,,,0.047064091179687885,0.033823683974616506,0.004665951438893319,1.3914537285473652,0.5501115270346378,0.3953502123343601,-3.3865940125671297,2021-09-23 21:05:10,2021-09-23 21:05:10.005,0.16976981,-0.29870722,-0.2941287,-0.0685888,0.04866539,-0.21114273,-0.40057978,0.14183821,0.50803137,0.27381188,0.3792454,0.5954517,0.6278515,0.75269455,0.33469299999999996,0.8628293,0.41742623,0.36027986,0.30007154,0.5858465,783.2967,792.96704,798.20514,810.696,676.9231,-0.040771484375,0.0093994140625,1.02569580078125,1.472930908203125,-3.177642822265625,3.850555419921875,44.0,82.0,-38.0
629.3447293447292,63.63184141714954,,,,,,,43.26036461263625,43.37091273943303,0.10110808663385916,0.06873874141709065,630.7692307692307,68.42769230769218,0.1084829268292681,84.61538461538453,11.111111111111109,44.444444444444436,12.6,164.0625,,,0.04830073202802716,0.03442075334401765,0.004601682695198649,1.4032444771119996,0.5531261988895438,0.3941766441354012,-3.3690956016277496,2021-09-23 21:05:11,2021-09-23 21:05:11.000,0.48731446,-0.5486589,-0.32695618,0.43216744,0.39650485,-0.12561765,-0.4672653000000001,0.27148545,0.77159107,0.33239952,0.39245722,0.8261741,0.5563606,0.59565574,0.42643666,0.8795847,0.44102418,0.29864326,0.30493298,0.5027415,798.20514,803.0403,794.9817,802.6374,926.337,-0.03924560546875,0.0147705078125,1.0181884765625,2.669219970703125,-3.626251220703125,0.85235595703125,48.0,71.0,-23.0
628.7749287749288,63.1297339306044,,,,,,,43.27127654738228,43.38354273040015,0.10040116270793904,0.06881838725931662,630.7692307692307,68.42769230769218,0.1084829268292681,84.61538461538453,11.111111111111109,44.444444444444436,12.6,164.0625,,,0.049934142588962865,0.03538999490818728,0.0046052782225552025,1.4109677811061478,0.5552592796176846,0.3935307999608477,-3.341326128501936,2021-09-23 21:05:12,2021-09-23 21:05:12.019,0.71694154,-0.71517277,0.0077738090000000004,0.4985055000000001,0.5121104999999999,-0.21876445,-0.48050338,0.34093404,0.75928473,0.37564957,0.26279038,0.74128634,0.60500497,0.50074995,0.4942957000000001,0.8665369,0.39501816,0.23953047,0.2721397,0.62324667,799.0110000000003,802.2344400000003,802.6374,803.8461,673.2967,-0.042724609375,0.01434326171875,1.02386474609375,2.175750732421875,-2.94586181640625,0.55328369140625,52.0,63.0,-11.0
628.1376518218624,62.52957262334019,,,,,,,43.14213913259838,43.25439748787937,0.0995475632482438,0.06868261917983758,623.0769230769231,68.42769230769218,0.10982222222222203,84.61538461538453,11.052631578947368,43.684210526315795,12.666666666666664,164.0625,,,0.05180943225376331,0.03659382749790575,0.004632959356151736,1.4157970290680402,0.5568737933526806,0.3933288331020494,-3.3078757003956256,2021-09-23 21:05:13,2021-09-23 21:05:13.015,0.5329755,-0.333187,0.65635943,0.18656862,0.061921067999999996,-0.033821486,0.43979686,0.07610214,0.322333,0.7739769000000001,0.7081229,0.13510178,0.47980607,0.92032844,0.77519196,0.6149456,0.20039478,0.5199457000000001,0.51426756,0.73791444,801.8315,822.7839,814.3223,790.14655,847.7655599999997,-0.05572509765625,0.01220703125,1.02508544921875,1.308441162109375,-2.3028564453125,4.628143310546875,51.0,63.0,-12.0
627.4089068825913,62.08735191482025,,,,,,,43.12762293463274,43.24061220721745,0.09895835273253276,0.06873925833938366,623.0769230769231,57.02307692307691,0.09151851851851847,76.9230769230769,11.052631578947368,43.684210526315795,12.666666666666664,164.0625,,,0.05308211316131955,0.03748991331347802,0.004593316103323411,1.4159038650600446,0.5577882842983998,0.3939450255506898,-3.283683360494178,2021-09-23 21:05:14,2021-09-23 21:05:14.026,0.47217253,-0.28092653,0.62030447,0.79190266,0.21759494,-0.005628451,0.42966723,0.19657038,0.5582223000000001,0.83243996,0.6620695,0.6695069,0.86631083,1.1048955,0.9301726999999999,1.0909029,0.52460474,0.99054337,0.7270111,0.69526654,795.38464,802.2344400000003,807.47253,821.9780000000003,887.25275,-0.05548095703125,0.0245361328125,1.02459716796875,1.652374267578125,-3.072967529296875,-0.25421142578125,49.0,76.0,-27.0
