HRV_MeanNN,HRV_SDNN,HRV_SDANN1,HRV_SDNNI1,HRV_SDANN2,HRV_SDNNI2,HRV_SDANN5,HRV_SDNNI5,HRV_RMSSD,HRV_SDSD,HRV_CVNN,HRV_CVSD,HRV_MedianNN,HRV_MadNN,HRV_MCVNN,HRV_IQRNN,HRV_pNN50,HRV_pNN20,HRV_HTI,HRV_TINN,HRV_ULF,HRV_VLF,HRV_LF,HRV_HF,HRV_VHF,HRV_LFHF,HRV_LFn,HRV_HFn,HRV_LnHF,Time,TimeStamp,Delta_TP9,Delta_AF7,Delta_AF8,Delta_TP10,Theta_TP9,Theta_AF7,Theta_AF8,Theta_TP10,Alpha_TP9,Alpha_AF7,Alpha_AF8,Alpha_TP10,Beta_TP9,Beta_AF7,Beta_AF8,Beta_TP10,Gamma_TP9,Gamma_AF7,Gamma_AF8,Gamma_TP10,RAW_TP9,RAW_AF7,RAW_AF8,RAW_TP10,AUX_RIGHT,Accelerometer_X,Accelerometer_Y,Accelerometer_Z,Gyro_X,Gyro_Y,Gyro_Z,Attention,Meditation,A_M
821.6976127320953,59.96018954802821,,,,,,,28.39389050044885,28.48795392203713,0.07297111324038555,0.03455515759141719,830.7692307692308,57.02307692307708,0.06863888888888907,76.9230769230769,7.586206896551723,47.58620689655172,12.083333333333336,195.3125,,,0.022671677405002352,0.003615914729542957,0.0003359969505742988,6.269970146079191,0.8515635263343946,0.13581620111331852,-5.622410418161959,2021-09-24 15:34:15,2021-09-24 15:34:15.000,0.5965678000000001,0.45887873,0.0053939144,0.63762414,0.5393191999999999,0.12000183,0.12723605,0.6598505,0.2808662,0.31394258,0.41781579999999996,0.29720935,0.62751204,1.2259127,0.52190846,0.5070581000000001,0.16867273,1.1708341999999998,0.29532975,0.18337019,889.67035,821.5751,779.2674,845.7509,801.4286,-0.9281005859375,-0.27484130859375,0.2847900390625,1.697235107421875,-4.015045166015625,-0.007476806640625,61.0,66.0,-5.0
822.2756410256412,60.50585198735344,,,,,,,28.42757085046392,28.52131176271804,0.07358341773554579,0.034571826565366365,830.7692307692308,62.725384615384634,0.0755027777777778,80.76923076923072,7.638888888888888,47.22222222222222,13.090909090909092,195.3125,,,0.02336209626611346,0.003879840510660265,0.00036998553729619037,6.02140634439062,0.846087280718195,0.14051323433874996,-5.551961231691741,2021-09-24 15:34:16,2021-09-24 15:34:16.001,0.5965678000000001,0.45887873,0.0053939144,0.63762414,0.5393191999999999,0.12000183,0.12723605,0.6598505,0.2808662,0.31394258,0.41781579999999996,0.29720935,0.62751204,1.2259127,0.52190846,0.5070581000000001,0.16867273,1.1708341999999998,0.29532975,0.18337019,841.3186599999997,851.79486,774.43225,865.09155,735.34796,-0.92779541015625,-0.273193359375,0.28741455078125,1.786956787109375,-3.8580322265625,0.112152099609375,61.0,65.0,-4.0
822.5961538461537,60.59127667920871,,,,,,,28.579998596481772,28.677204390441513,0.07365859467723794,0.03474365697292933,830.7692307692308,62.725384615384634,0.0755027777777778,80.76923076923072,7.638888888888888,47.91666666666667,13.090909090909092,195.3125,,,0.024166167272970364,0.004185048799715379,0.0004087826399102504,5.774405133487065,0.8402701096918452,0.14551630692119805,-5.476236914483741,2021-09-24 15:34:17,2021-09-24 15:34:17.016,0.5965678000000001,0.5896664,0.0053939144,0.63762414,0.5393191999999999,1.1530973999999998,0.12723605,0.6598505,0.2808662,1.1169653999999998,0.41781579999999996,0.29720935,0.62751204,1.2506071,0.52190846,0.5070581000000001,0.16867273,1.5477068,0.29532975,0.18337019,823.1868,815.12823,811.9048,800.2198,915.8608,-0.79339599609375,-0.220703125,0.57391357421875,20.80795288085937,-43.67950439453125,-7.738494873046875,57.99999999999999,65.0,-7.000000000000008
823.0238726790451,60.39602314615254,,,,,,,28.54544112591324,28.642618659676142,0.07338307569324322,0.034683612557913135,830.7692307692308,57.02307692307708,0.06863888888888907,76.9230769230769,7.586206896551723,48.27586206896552,13.181818181818182,195.3125,,,0.02520340132751863,0.0045995471566106045,0.0004614058481971622,5.479539717577536,0.8327751205515728,0.15197902807057972,-5.381797424548124,2021-09-24 15:34:18,2021-09-24 15:34:18.000,0.5965678000000001,0.6020907,0.0053939144,0.63762414,0.5393191999999999,1.1397204,0.12723605,0.6598505,0.2808662,1.1259611,0.41781579999999996,0.29720935,0.62751204,1.0868808,0.52190846,0.5070581000000001,0.16867273,1.3419504,0.29532975,0.18337019,841.7216,808.2784,759.5238,784.5055,853.00366,-0.62451171875,-0.13592529296875,0.7901611328125,0.426177978515625,-1.308441162109375,12.329254150390625,60.0,56.00000000000001,3.9999999999999933
823.5543766578251,60.46214665571839,,,,,,,28.43004725838037,28.51794637059868,0.07341609536590386,0.03452115375035236,830.7692307692308,57.02307692307708,0.06863888888888907,84.61538461538464,7.586206896551723,48.27586206896552,13.181818181818182,195.3125,,,0.025918171403937817,0.004926226089035622,0.0005033694232576444,5.261263071466471,0.8267948231590952,0.15714759211396798,-5.313182083253063,2021-09-24 15:34:19,2021-09-24 15:34:19.023,0.8706265999999999,-0.10807642,0.54307777,1.2243481999999999,0.9921435,-0.035959613,0.28013793,1.3003213,0.8352876,0.49880385,0.6982003000000001,0.95911,1.209725,0.96846265,1.1508886999999999,1.0981054,1.1564832,0.75772816,0.99167806,0.9466699000000001,870.32965,796.99634,793.7729,848.1685,1083.4799,-0.66448974609375,-0.07305908203125,0.762451171875,2.87109375,-3.39447021484375,-0.441131591796875,56.99999999999999,47.0,9.999999999999991
824.2440318302388,60.2313848365755,,,,,,,28.43004725838037,28.517946370598683,0.07307469937371745,0.034492269474188715,830.7692307692308,57.02307692307708,0.06863888888888907,84.61538461538464,7.586206896551723,48.27586206896552,13.181818181818182,195.3125,,,0.025177912680619502,0.004972463702771711,0.0005159975975174575,5.063468370133107,0.821026727721184,0.1621471030734613,-5.303839846856211,2021-09-24 15:34:20,2021-09-24 15:34:20.007,0.8706265999999999,-0.06680154,0.2762881,1.2079886999999998,0.9921435,-0.014843605,0.012035097,1.3611189,0.8352876,0.6596227,0.6767509,0.95911,1.209725,0.9690661,1.2342407,1.0771004,1.1564832,0.8429834,0.95873135,0.9455805,788.1319,765.9707,805.05493,751.0622599999997,1035.5311,-0.659912109375,-0.07244873046875,0.7698974609375,1.278533935546875,-5.62255859375,0.336456298828125,54.0,40.0,14.0
825.5876068376068,59.79115569291771,,,,,,,28.50025716407669,28.59182342538059,0.0724225451032947,0.034521178525494384,830.7692307692308,57.02307692307691,0.06863888888888886,76.923076923077,7.638888888888888,48.61111111111111,13.090909090909092,195.3125,,,0.02428601022463141,0.004966867018318754,0.000521685316306509,4.8896034733887515,0.8156630404325145,0.16681578473013015,-5.30496601625363,2021-09-24 15:34:21,2021-09-24 15:34:21.000,0.19130306,-0.061798852,0.42531595,0.11313665,0.27760524,-0.265244,-0.024926182,0.047444846,0.37267965,0.08708479,0.38757864,0.5495709,1.1467328,0.902432,1.1993108000000001,1.1884108,1.2138081,1.0137391,0.94855714,1.0919375,802.6374,805.4579,812.71063,751.8681,712.3810000000003,-0.64031982421875,-0.06878662109375,0.78875732421875,1.9439697265625,-3.9178466796875,0.8074951171875,55.00000000000001,42.0,13.000000000000007
826.0683760683762,59.550398292391655,,,,,,,28.587236787960737,28.68523074648592,0.07208894568246066,0.03460638079866949,830.7692307692308,57.02307692307691,0.06863888888888886,71.15384615384619,7.638888888888888,49.305555555555564,12.0,195.3125,,,0.023170324538760383,0.0049160216066325025,0.0005215219137321119,4.713226749756326,0.8099283907096247,0.1718415925462313,-5.31525569212273,2021-09-24 15:34:22,2021-09-24 15:34:22.002,0.20242943,0.07071987,0.46295378,0.22353576,0.27176209999999995,0.32837140000000004,0.60591733,0.054492734,0.50915116,0.8327382,0.8810643,0.5778858,1.1048930000000001,0.9669261,1.3282803,1.1484754,1.1993958999999998,0.92263484,1.3256541000000002,1.0803431000000001,815.9341,834.87177,798.20514,861.4652,751.0622599999997,-0.64337158203125,-0.05303955078125,0.791259765625,1.368255615234375,-4.725341796875,0.979461669921875,52.0,49.0,3.0
826.5734265734267,59.575457728299135,,,,,,,28.512881569002236,28.61376079714848,0.0720752153565717,0.034495279732380035,830.7692307692308,57.02307692307691,0.06863888888888886,69.23076923076928,7.6923076923076925,48.251748251748246,11.916666666666664,195.3125,,,0.022090670227619447,0.004813627123268186,0.0005134034391437517,4.589194314789614,0.8057083413665104,0.17556640362120884,-5.336304399358163,2021-09-24 15:34:23,2021-09-24 15:34:23.000,0.20652689999999999,0.22795084,0.43393552,0.38447285,0.060316376,0.30668807,0.64088607,0.14392492,0.557559,0.8410453000000001,0.8810643,0.72816473,1.2322375,1.0258281999999999,1.0266515,1.2722043,1.0495223999999999,0.9134573,1.1743953999999999,1.0482059000000001,786.1172,796.1905,807.0696,840.5128,991.6117,-0.62347412109375,-0.04888916015625,0.8045654296875,1.487884521484375,-4.583282470703125,-1.428070068359375,54.0,55.00000000000001,-1.000000000000007
826.9764957264956,59.48007534110482,,,,,,,28.50751560228532,28.607514353367637,0.07192474713426021,0.03447197804242499,830.7692307692308,51.32076923076927,0.06177500000000004,69.23076923076928,7.638888888888888,48.61111111111111,13.090909090909092,265.625,,,0.021400042459002767,0.004725636893132999,0.0005044155998376114,4.528499108786791,0.8036036858898602,0.17745475191341042,-5.354752934922623,2021-09-24 15:34:24,2021-09-24 15:34:24.001,0.1686279,-0.15512468,-0.05851404,0.16865267,0.07197836,-0.123560734,-0.019013204,-0.026143434,0.6265550999999999,0.32899509999999993,-0.055103563,0.73631936,1.2555903999999998,1.0629643999999998,1.1017255,1.2178336,1.0062532,0.91276586,1.0345875,1.0890795,822.3810000000003,819.5604,815.9341,859.0476,964.61536,-0.6136474609375,-0.0599365234375,0.81976318359375,2.011260986328125,-3.192596435546875,0.8074951171875,56.99999999999999,57.99999999999999,-1.0
827.2970085470085,59.70805139669075,,,,,,,28.442122973684956,28.535918198819605,0.07217244928947186,0.034379579135234865,830.7692307692308,57.02307692307691,0.06863888888888886,69.23076923076928,7.638888888888888,48.61111111111111,13.090909090909092,265.625,,,0.020919354879484608,0.00464740495340992,0.0004951266065329269,4.501298055409513,0.8026799950995481,0.17832189408895366,-5.371446289699928,2021-09-24 15:34:25,2021-09-24 15:34:25.002,0.3836349,-0.08075648,0.012273289,0.01599083,0.17355089,0.076360114,0.15225922,-0.06524374,0.5437588000000001,0.5332855,0.01654657,0.47760138,1.2252094,1.0984669,0.98832273,1.1859153999999998,1.0563552,0.9414756999999999,0.9558093000000001,1.1149714,785.7143,779.67035,780.4762,835.2747,744.61536,-0.599365234375,-0.059814453125,0.81817626953125,1.443023681640625,-4.56085205078125,0.650482177734375,59.0,57.99999999999999,1.000000000000007
827.9914529914529,60.058943413947624,,,,,,,28.40572868753833,28.500461652427525,0.07253570456187737,0.034306789743917265,830.7692307692308,57.02307692307691,0.06863888888888886,71.15384615384619,7.638888888888888,47.91666666666667,13.090909090909092,210.9375,,,0.020169607166944936,0.004471864685849292,0.0004736724789314583,4.510334856680561,0.8030854571465272,0.17805450873720008,-5.409949801670914,2021-09-24 15:34:26,2021-09-24 15:34:26.001,0.3836349,0.7625819,0.26198557,0.01599083,0.17355089,0.7521113,0.31908807,-0.06524374,0.5437588000000001,0.7612916999999999,0.49993554,0.47760138,1.2252094,0.9759450999999999,0.8976569999999999,1.1859153999999998,1.0563552,0.9039284,1.0305676,1.1149714,815.12823,803.8461,801.02563,817.1429,1054.4689,-0.59930419921875,-0.0667724609375,0.82037353515625,1.6748046875,-4.17205810546875,-0.34393310546875,59.0,49.0,10.0
828.2051282051282,60.12359513343967,,,,,,,28.666736272679017,28.766688028836285,0.0725950529474968,0.03461308714038643,834.6153846153846,51.32076923076927,0.0614903225806452,71.15384615384619,7.638888888888888,48.61111111111111,14.4,265.625,,,0.019774920355549862,0.004346826168857804,0.0004573726607759375,4.549277930004278,0.8045414567772741,0.1768503637623471,-5.438309316535623,2021-09-24 15:34:27,2021-09-24 15:34:27.009,0.49583706,-0.15952499,-0.391656,0.6975361,0.11552802,-0.26357797,-0.20150493,0.06511011,0.3626277,0.45225550000000003,0.49606818,0.5717026,1.1572868,0.848158,1.0338277,1.0942453,0.91390884,0.69845045,0.9588475000000001,0.8217360999999999,809.0842,796.99634,806.6667,784.90845,722.4542,-0.58660888671875,-0.04931640625,0.830078125,1.891632080078125,-3.132781982421875,-0.485992431640625,56.00000000000001,40.0,16.000000000000007
828.617536309844,60.572081661117274,,,,,,,28.85427837915432,28.954580575764734,0.07310016866269604,0.034822191318389935,838.4615384615386,57.02307692307691,0.06800917431192659,76.9230769230769,7.6923076923076925,49.650349650349646,15.888888888888891,148.4375,,,0.01949223553411707,0.004226554216133993,0.00044159222043164796,4.611850348378238,0.8067850730907243,0.17493739218455587,-5.466368224010703,2021-09-24 15:34:28,2021-09-24 15:34:28.000,0.2288614,-0.15361325,0.08341247,0.21354635,0.33218798,-0.18189111,-0.14812724,0.23007298,0.48522390000000004,0.4931104,0.5441597,0.75300926,1.1412269,0.7704788,1.1721287,1.1522964,0.92998767,0.77488387,0.91750866,0.80553347,801.4286,791.75824,777.6557,751.4652,630.18317,-0.586669921875,-0.06024169921875,0.83856201171875,2.07855224609375,-3.715972900390625,-0.0299072265625,52.0,34.0,18.0
828.9940828402366,60.84860011335432,,,,,,,28.796454115871125,28.893275021962644,0.07340052404822899,0.034736622024141475,838.4615384615386,57.02307692307691,0.06800917431192659,76.9230769230769,7.6923076923076925,48.95104895104895,15.888888888888891,148.4375,,,0.018939253129875683,0.004016910480519154,0.0004162661807615537,4.714880558510211,0.8103245276210809,0.17186533520100958,-5.517242209011599,2021-09-24 15:34:29,2021-09-24 15:34:29.001,0.12819251,-0.26404795,-0.05022757,-0.012810102,0.3777446,-0.08138323,-0.07127339,0.23168473,0.39258367,0.73057973,0.5582050000000001,0.72958016,1.0163163,0.8881167999999999,1.0214806,1.0950673,0.8917212999999999,0.8976937,0.89363974,0.8325788000000001,794.57874,775.64105,784.90845,809.8901400000003,836.8865,-0.5843505859375,-0.0596923828125,0.8331298828125,1.472930908203125,-3.1402587890625,0.829925537109375,47.0,25.0,22.0
829.7008547008546,60.89368447246829,,,,,,,28.753212294972574,28.851046515749502,0.07339233668069832,0.034654914638287834,838.4615384615386,57.02307692307691,0.06800917431192659,76.9230769230769,7.638888888888888,49.305555555555564,16.0,148.4375,,,0.017794803886541213,0.003701087661560313,0.0003817740416830145,4.8079930857512405,0.8133776345338343,0.16917196427430914,-5.5991285399466255,2021-09-24 15:34:30,2021-09-24 15:34:30.035,0.30498059999999994,-0.35885042,0.16328879999999998,-0.2289067,0.40424329999999997,0.12191102,0.24682343,0.27962524,0.27572729999999995,0.791229,0.6502101,0.31289965,0.9838947,0.9091883,1.0521778,1.1368396,0.69428223,0.9543026,0.8664784,0.65984493,795.78754,805.05493,821.5751,791.75824,605.6044,-0.5858154296875,-0.05303955078125,0.8365478515625,1.95892333984375,-3.4991455078125,-0.022430419921875,51.0,34.0,17.0
830.1282051282051,61.00834063751506,,,,,,,28.753212294972574,28.851046515749502,0.07349267289152392,0.03463707427039167,838.4615384615386,57.02307692307691,0.06800917431192659,76.9230769230769,7.638888888888888,49.305555555555564,14.4,210.9375,,,0.016889371587392718,0.00344601822365626,0.0003547192080392602,4.901126602131816,0.8163017203926262,0.1665538939633928,-5.670535852539755,2021-09-24 15:34:31,2021-09-24 15:34:31.005,0.30498059999999994,-0.37238094,-0.3838017,-0.2289067,0.40424329999999997,0.1486604,-0.2285701,0.27962524,0.27572729999999995,0.2840409,0.054522797000000005,0.31289965,0.9838947,0.93760985,1.0126697,1.1368396,0.69428223,0.90760016,1.0351243,0.65984493,830.4396,797.8022,791.3553,811.0989,736.9597,-0.58282470703125,-0.05712890625,0.83056640625,1.637420654296875,-3.850555419921875,-0.478515625,54.0,38.0,16.0
830.4464766003227,61.238938774255026,,,,,,,28.91198699356364,29.013515758440352,0.07374218628147435,0.034814991463295,838.4615384615386,57.02307692307691,0.06800917431192659,76.9230769230769,7.6923076923076925,50.349650349650354,14.3,195.3125,,,0.015966153763185584,0.0031919926098072093,0.00032892917464123793,5.0019394512789646,0.8193201552566501,0.16380049443564434,-5.747109914620559,2021-09-24 15:34:32,2021-09-24 15:34:32.002,0.30498059999999994,0.20595402,-0.32685935,-0.2289067,0.40424329999999997,-0.016861387,-0.37786993,0.27962524,0.27572729999999995,0.5279793,0.35744852,0.31289965,0.9838947,0.8262305,1.0630528000000001,1.1368396,0.69428223,1.0021712,0.96337694,0.65984493,797.8022,811.0989,801.8315,835.6777,705.12823,-0.57763671875,-0.0484619140625,0.83184814453125,1.428070068359375,-3.701019287109375,0.35888671875,56.99999999999999,47.0,9.999999999999991
830.4464766003227,61.238938774255026,,,,,,,28.91198699356364,29.013515758440352,0.07374218628147433,0.034814991463295,838.4615384615386,57.02307692307691,0.06800917431192659,76.9230769230769,7.6923076923076925,50.349650349650354,14.3,195.3125,,,0.015283875305081953,0.00302132467603077,0.00031280087326359985,5.0586669570252765,0.8209192503871514,0.1622797581578466,-5.80205990932005,2021-09-24 15:34:33,2021-09-24 15:34:33.002,0.30498059999999994,0.2423643,-0.015541036000000001,-0.2289067,0.40424329999999997,-0.0336907,0.21196586,0.27962524,0.27572729999999995,0.47421488,0.65190965,0.31289965,0.9838947,0.7476473000000001,1.0383785,1.1368396,0.69428223,0.9255892,1.0587233999999999,0.65984493,792.1612,787.7289400000003,811.9048,806.6667,662.01465,-0.58636474609375,-0.0537109375,0.83685302734375,1.8243408203125,-3.745880126953125,-0.246734619140625,52.0,62.0,-10.0
830.3926842388382,61.2216157357296,,,,,,,28.62228041656862,28.72030591829105,0.07372610199696918,0.03446836774917475,838.4615384615386,57.02307692307691,0.06800917431192659,76.9230769230769,6.9930069930069925,50.349650349650354,14.3,210.9375,,,0.014768127777671232,0.0029027460176108645,0.00030290978689528995,5.087640354365655,0.821648247301428,0.16149888554846056,-5.842098087394757,2021-09-24 15:34:34,2021-09-24 15:34:34.014,0.30498059999999994,-0.69665265,-0.17701050000000002,-0.2289067,0.40424329999999997,-0.34141123,0.31375858,0.27962524,0.27572729999999995,-0.035891496,0.64351714,0.31289965,0.9838947,1.2533829,1.1846228,1.1368396,0.69428223,1.1441194,1.1157415000000002,0.65984493,665.64105,773.6264,796.1905,680.14655,813.91943,-0.5955810546875,-0.0491943359375,0.83111572265625,2.04864501953125,-3.1402587890625,0.022430419921875,48.0,68.0,-20.0
830.1775147928995,61.001701095342256,,,,,,,28.622280416568614,28.72359854018097,0.0734803099437836,0.03447730142836847,838.4615384615386,57.02307692307691,0.06800917431192659,76.9230769230769,6.9930069930069925,50.349650349650354,13.0,210.9375,,,0.014630705416055574,0.002879356785044382,0.0003038025624968187,5.081240884092125,0.8213100082556991,0.1616357159580802,-5.8501883483043,2021-09-24 15:34:35,2021-09-24 15:34:35.018,0.30498059999999994,-0.34905255,-0.27929386,-0.2289067,0.40424329999999997,-0.39073070000000004,-0.29127893,0.27962524,0.27572729999999995,0.12360918,0.40837514,0.31289965,0.9838947,1.2873666000000001,1.1092993,1.1368396,0.69428223,1.2823825,1.1299523,0.65984493,825.6044,830.0366,815.9341,809.0842,771.6117,-0.59185791015625,-0.05462646484375,0.82965087890625,1.667327880859375,-3.75335693359375,-0.2093505859375,46.0,75.0,-29.0
830.2350427350427,60.79195398269784,,,,,,,28.587236787960745,28.68766868839266,0.07322258258628897,0.034432703170159895,838.4615384615386,57.02307692307691,0.06800917431192659,76.9230769230769,6.9444444444444455,50.0,13.090909090909092,210.9375,,,0.014273522517446999,0.002844311284652624,0.0003053783305513582,5.018270185286778,0.8192245154783206,0.16324838743841058,-5.862434319917961,2021-09-24 15:34:36,2021-09-24 15:34:36.001,0.30498059999999994,0.016083397,-0.15241602,-0.2289067,0.40424329999999997,-0.35550859999999995,-0.4002954,0.27962524,0.27572729999999995,0.546138,0.21271594,0.31289965,0.9838947,1.1629158000000002,0.985142,1.1368396,0.69428223,1.2140438999999998,1.1161529,0.65984493,886.4469,853.4066,919.8901400000001,933.5897,850.9889999999997,-0.62127685546875,-0.049072265625,0.79949951171875,1.757049560546875,4.403839111328125,0.11962890625,46.0,78.0,-32.0
830.1816239316238,60.78124680237389,,,,,,,28.471204906613305,28.57000484089109,0.07321439676600215,0.03429515191118983,838.4615384615386,57.02307692307691,0.06800917431192659,76.9230769230769,6.9444444444444455,49.305555555555564,13.090909090909092,210.9375,,,0.014002059344162508,0.0028440598351500875,0.0003099353498271609,4.923264683502549,0.8161584774855926,0.16577586824053392,-5.862522728180152,2021-09-24 15:34:37,2021-09-24 15:34:37.000,0.30498059999999994,-0.0008287213,-0.21031742,-0.2289067,0.40424329999999997,-0.3749686,-0.46378842,0.27962524,0.27572729999999995,0.5359241,0.05950636,0.31289965,0.9838947,1.1731825,0.9646167999999999,1.1368396,0.69428223,1.2251807,1.1412243999999998,0.65984493,735.7509,840.9158,782.8938,753.0769,699.4872,-0.8299560546875,-0.02069091796875,0.581298828125,1.039276123046875,-11.716156005859375,2.310333251953125,71.0,62.0,9.0
829.9679487179487,60.66976116423441,,,,,,,28.449396243967172,28.547557136819577,0.07309892057633187,0.034277704684756743,838.4615384615386,57.02307692307691,0.06800917431192659,76.9230769230769,6.9444444444444455,49.305555555555564,14.4,195.3125,,,0.013844477149761563,0.002889611574669818,0.00031953400371540874,4.7911204644671,0.8118203017890988,0.16944268210534233,-5.8466331891191565,2021-09-24 15:34:38,2021-09-24 15:34:38.003,0.30498059999999994,-0.0008287213,-0.21031742,-0.2289067,0.40424329999999997,-0.3749686,-0.46378842,0.27962524,0.27572729999999995,0.5359241,0.05950636,0.31289965,0.9838947,1.1731825,0.9646167999999999,1.1368396,0.69428223,1.2251807,1.1412243999999998,0.65984493,786.5201400000003,815.12823,821.9780000000003,785.7143,786.5201400000003,-0.78533935546875,-0.013671875,0.65460205078125,0.01495361328125,-30.37826538085937,2.998199462890625,87.0,55.00000000000001,31.999999999999996
828.7789133942981,60.346758127749645,,,,,,,28.77474005915819,28.865081936569943,0.07281406072531094,0.03471944036475308,838.4615384615386,57.02307692307691,0.06800917431192659,76.9230769230769,6.9930069930069925,50.349650349650354,14.3,195.3125,,,0.013763906049176409,0.003002243810420541,0.00033753490670158486,4.584539737047012,0.8047333798093089,0.17553198924340715,-5.808395333072523,2021-09-24 15:34:39,2021-09-24 15:34:39.030,0.30498059999999994,0.19061632,-0.21031742,-0.2289067,0.40424329999999997,-0.022093397999999997,-0.46378842,0.27962524,0.27572729999999995,0.32759935,0.05950636,0.31289965,0.9838947,1.0385734,0.9646167999999999,1.1368396,0.69428223,1.0470034,1.1412243999999998,0.65984493,801.8315,802.2344400000003,782.8938,783.69965,650.7326,-0.60113525390625,0.00628662109375,0.82464599609375,2.85614013671875,4.14215087890625,2.833709716796875,97.0,48.0,49.0
828.2409897794513,59.91059416403701,,,,,,,28.926396158172878,29.025532799828568,0.07233473699483328,0.03492509609537142,838.4615384615386,57.02307692307691,0.06800917431192659,76.9230769230769,6.9930069930069925,51.04895104895106,13.0,195.3125,,,0.013890538029287372,0.003158682614810483,0.0003589507908111273,4.397573204777583,0.7979320562889434,0.18144827138342104,-5.757600232355116,2021-09-24 15:34:40,2021-09-24 15:34:40.001,0.30498059999999994,0.17220239999999998,-0.21031742,-0.2289067,0.40424329999999997,0.14027485,-0.46378842,0.27962524,0.27572729999999995,0.41629073,0.05950636,0.31289965,0.9838947,1.1859825000000002,0.9646167999999999,1.1368396,0.69428223,1.2529531999999999,1.1412243999999998,0.65984493,776.04395,824.7985,784.1025400000003,744.61536,859.0476,-0.60699462890625,0.01324462890625,0.818603515625,2.175750732421875,-4.074859619140625,0.70281982421875,100.0,42.0,58.0
828.0258203335126,59.70596058029213,,,,,,,28.97677180850271,29.079293957862593,0.07210639947947968,0.03499500993439001,838.4615384615386,57.02307692307691,0.06800917431192659,73.0769230769231,6.9930069930069925,51.04895104895106,13.0,265.625,,,0.013964607076591893,0.003323641735261187,0.0003807476301599591,4.201598183233335,0.7903452311183383,0.18810585797381726,-5.706694189006777,2021-09-24 15:34:41,2021-09-24 15:34:41.003,0.65974075,0.024476117999999998,-0.12274816,0.7873840999999999,0.54986054,0.03526234,0.17364831,0.6696295999999999,0.8346064000000001,0.39538047,0.49838516,0.7790691,1.3640976,1.2793088,1.3022666,1.1053581000000001,1.4473274999999999,1.2681247,1.1285927,1.3154665,853.8095,814.7253,823.1868,877.5824,761.9414,-0.60693359375,0.02276611328125,0.822265625,1.517791748046875,-3.970184326171875,0.40374755859375,89.0,38.0,51.0
828.4722222222223,59.73749739030058,,,,,,,28.911079882850316,29.012499985660725,0.0721056129438666,0.034896860881227544,838.4615384615386,57.02307692307691,0.06800917431192659,76.9230769230769,6.9444444444444455,50.694444444444436,13.090909090909092,265.625,,,0.013980694438085734,0.003530763379388424,0.00040684409443024255,3.9596803681892094,0.7802466163826253,0.19704787857395611,-5.646241176632371,2021-09-24 15:34:42,2021-09-24 15:34:42.025,0.59626293,-0.009266832,0.12923674,0.49527946,0.53402585,-0.10803589999999999,0.24271929999999997,0.5242289000000001,0.80798465,0.29673043,0.26001096,0.76429695,1.4069068,1.1128753,1.2646253,1.1660125,1.4738858,1.1216508,1.2461783000000002,1.4147296,710.3663,782.49084,793.36993,660.80585,692.6374,-0.58172607421875,0.015869140625,0.8399658203125,1.2860107421875,-3.476715087890625,-1.1065673828125,75.0,34.0,41.0
828.5790598290597,59.83842739834676,,,,,,,28.90392278906993,29.00546838121083,0.07221812654871068,0.034883723461504035,838.4615384615386,57.02307692307691,0.06800917431192659,76.9230769230769,6.9444444444444455,50.694444444444436,13.090909090909092,265.625,,,0.01411338230824606,0.003735663211978878,0.000430703182989445,3.778012499357466,0.7720774796955665,0.20436075312796748,-5.589829909365593,2021-09-24 15:34:43,2021-09-24 15:34:43.000,0.59626293,0.8245559000000001,0.19675048,0.49527946,0.53402585,1.0573982,0.3439733,0.5242289000000001,0.80798465,0.67066795,0.25156865,0.76429695,1.4069068,0.9822163,1.2425648,1.1660125,1.4738858,0.9184705,1.2507433000000001,1.4147296,836.8865,813.5165,820.7692,850.58606,855.82416,-0.581787109375,0.01690673828125,0.82708740234375,2.205657958984375,-4.329071044921875,-0.16448974609375,61.0,12.0,49.0
828.2585470085471,59.65952043090324,,,,,,,29.07520679378529,29.177354736442517,0.07203006916907505,0.03510402264944603,838.4615384615386,57.02307692307691,0.06800917431192659,71.15384615384619,7.638888888888888,50.694444444444436,12.0,195.3125,,,0.014514832748970134,0.004058669605432386,0.00046559154385365965,3.576253836858892,0.7623699334924531,0.21317556534579227,-5.506900042459468,2021-09-24 15:34:44,2021-09-24 15:34:44.000,0.59626293,0.68219006,-0.13689294,0.49527946,0.53402585,0.86979914,-0.16837944,0.5242289000000001,0.80798465,0.6938941999999999,0.4786973,0.76429695,1.4069068,0.9912870999999999,1.0533618,1.1660125,1.4738858,1.0212562,0.9324415999999999,1.4147296,797.3993,788.5348,787.7289400000003,795.78754,780.4762,-0.58526611328125,0.015869140625,0.84527587890625,2.10845947265625,-4.149627685546875,0.22430419921875,49.0,0.0,49.0
828.3119658119658,59.67909644690354,,,,,,,29.07520679378529,29.176955246396613,0.07204905749297268,0.03510175875013935,838.4615384615386,57.02307692307691,0.06800917431192659,71.15384615384619,7.638888888888888,50.694444444444436,12.0,171.875,,,0.014942593234465444,0.0043427497897579855,0.0004938287244148677,3.440813760375122,0.7554711301545867,0.2195617614805819,-5.439247539394426,2021-09-24 15:34:45,2021-09-24 15:34:45.001,0.29722059999999995,-0.18661901,-0.43964902,0.35399342,-0.11634719,-0.37909406,-0.20043328,0.31489520000000004,0.7874725,0.43608648,0.6642421,0.90286297,1.1062791,0.93897194,1.0824882,1.0449204,1.1298549999999998,0.79316914,1.029052,1.043326,699.0842,817.5458,759.5238,734.1392,882.8205,-0.58123779296875,0.01025390625,0.83892822265625,1.816864013671875,-3.087921142578125,0.59814453125,43.0,0.0,43.0
828.9402904787521,59.744699798904406,,,,,,,28.366360138944422,28.448027244314837,0.0720735865841423,0.034220028227318414,838.4615384615386,57.02307692307691,0.06800917431192659,73.0769230769231,6.293706293706294,49.650349650349646,11.916666666666664,171.875,,,0.015518122712109322,0.004656185692573209,0.0005226329911820201,3.3327972157255905,0.749778550139297,0.2249697481147412,-5.3695586869227645,2021-09-24 15:34:46,2021-09-24 15:34:46.010,0.39326626,0.20161125,0.01623665,0.46086803,-0.036724396,0.52060014,0.18496059,0.18312359,0.76400334,1.0577223,0.5641901,0.8950413,1.0774853000000002,0.8145182,0.9870333,1.0396744,1.1218871000000001,0.81946725,1.0273626,1.0589674999999998,809.0842,824.3956,800.6227,826.8132,809.4872,-0.57672119140625,0.01385498046875,0.8431396484375,2.6318359375,-4.882354736328125,-1.854248046875,38.0,4.0,34.0
829.9623453469609,59.03432470367423,,,,,,,28.35901419549897,28.44257274836801,0.07112891932343662,0.03416903713100822,838.4615384615386,57.02307692307691,0.06800917431192659,73.0769230769231,6.293706293706294,49.650349650349646,11.916666666666664,171.875,,,0.016355445028999462,0.0050510385066847,0.0005539413846533161,3.2380361003690954,0.7447690601766426,0.23000641039540864,-5.2881614119488205,2021-09-24 15:34:47,2021-09-24 15:34:47.026,0.4215332000000001,0.71949065,0.3368771,0.49778792,-0.03883208,0.5794001999999999,0.18981771,0.1731324,0.7581281,1.0371820999999999,0.72284704,0.8744873,1.0903106000000002,0.78037494,0.93549806,1.0297711999999999,1.1611004999999999,0.69320214,0.8478938,1.0730349,767.5824,788.9377400000003,795.38464,760.32965,524.61536,-0.55572509765625,0.0098876953125,0.85552978515625,1.71966552734375,-3.78326416015625,-0.8074951171875,37.0,23.0,14.0
831.3568376068374,58.392415897772004,,,,,,,28.17169191931661,28.241012869389138,0.07023748799115159,0.033886401897423826,838.4615384615386,57.02307692307691,0.06800917431192659,76.9230769230769,6.25,48.61111111111111,12.0,171.875,,,0.01727831138520321,0.005405209717984022,0.0005791070580707781,3.1966033302492263,0.7427497557640032,0.23235593504374344,-5.220392027906595,2021-09-24 15:34:48,2021-09-24 15:34:48.004,0.4215332000000001,0.6350749,0.29701346,-0.0320443,-0.03883208,0.27482915,-0.07279199,0.27522254,0.7581281,0.60406005,0.57976973,0.34399477,1.0903106000000002,0.9198455,0.87507844,0.90066814,1.1611004999999999,0.91425234,0.7949659,0.7810794,765.56775,791.75824,797.8022,803.8461,832.0513,-0.5594482421875,0.00482177734375,0.8514404296875,2.071075439453125,-4.119720458984375,-0.306549072265625,38.0,56.00000000000001,-18.000000000000007
832.8671328671327,56.88808782480635,,,,,,,28.004142895917116,28.10306259527612,0.06830391737151392,0.033623781982503334,838.4615384615386,57.02307692307691,0.06800917431192659,73.0769230769231,6.293706293706294,48.251748251748246,11.916666666666664,171.875,,,0.01845538028844016,0.005795824440120303,0.0006041587422450902,3.1842545403354365,0.7425109799789232,0.2331820432611224,-5.150617544816764,2021-09-24 15:34:49,2021-09-24 15:34:49.001,-0.013980256000000002,-0.35032344,-0.3112606,-0.06510467,-0.13888535,-0.25727928,-0.40553793,0.27311322,0.3227599,-0.01752575,-0.017105058,0.42139605,1.1581515,1.0024805,0.84920025,0.9108567,1.0349704,1.0293739,0.9629839,0.7758344,813.91943,788.1319,762.3443,813.1135,778.0586,-0.6397705078125,0.015380859375,0.79571533203125,2.7215576171875,-1.816864013671875,1.614990234375,34.0,75.0,-41.0
832.9747175901019,56.84002005930338,,,,,,,27.99670191188888,28.095752997566446,0.0682373892736487,0.03361050620226118,838.4615384615386,57.02307692307691,0.06800917431192659,69.23076923076917,6.293706293706294,48.251748251748246,11.916666666666664,171.875,,,0.020385013401771488,0.00635322214600534,0.0006368168678962699,3.2086102033420625,0.7446565979943259,0.2320807299118783,-5.058793170206079,2021-09-24 15:34:50,2021-09-24 15:34:50.010,-0.013980256000000002,0.07973295,-0.7196017,-0.17087688,-0.13888535,-0.36880857,-0.26562992,0.22553772,0.3227599,0.42840865,-0.45434436,0.34314495,1.1581515,1.1746185,0.83465886,0.91958153,1.0349704,1.3467904,1.0121917,0.79725647,798.20514,793.36993,848.9743699999997,767.5824,574.57874,-0.62200927734375,0.015869140625,0.803466796875,1.592559814453125,-5.75714111328125,0.022430419921875,42.0,70.0,-28.0
833.0285099515868,56.819560995630006,,,,,,,27.99670191188888,28.095752997566446,0.06820842302135878,0.03360833582216288,838.4615384615386,57.02307692307691,0.06800917431192659,69.23076923076917,6.293706293706294,48.251748251748246,11.916666666666664,171.875,,,0.022201490470669258,0.006819909191475544,0.0006609221284355618,3.2553938545720995,0.7479701428786095,0.2297633331918068,-4.9879091222483245,2021-09-24 15:34:51,2021-09-24 15:34:51.006,-0.013980256000000002,0.28290263,-0.7196017,-0.17087688,-0.13888535,0.12575611,-0.26562992,0.22553772,0.3227599,0.67624134,-0.45434436,0.34314495,1.1581515,1.0692043,0.83465886,0.91958153,1.0349704,1.2798588,1.0121917,0.79725647,807.0696,817.5458,746.63007,838.0952,908.6080300000001,-0.6041259765625,0.01885986328125,0.816650390625,1.667327880859375,-3.446807861328125,0.83740234375,46.0,64.0,-18.0
833.1360946745561,56.78580538597142,,,,,,,27.99670191188888,28.095752997566446,0.06815909879424126,0.033603995902764354,838.4615384615386,57.02307692307691,0.06800917431192659,69.23076923076917,6.293706293706294,48.251748251748246,11.916666666666664,171.875,,,0.024228614114930228,0.00729326313857491,0.0006833109023821321,3.3220540181502973,0.7523202161606101,0.2264623669724365,-4.9208042146526205,2021-09-24 15:34:52,2021-09-24 15:34:52.000,0.36437953,0.034847412,-0.4359622,-0.07185687,0.23485905,0.16666847,-0.19220342,0.064329065,0.17490725,0.62566376,0.34357435,0.25316283,1.0347681,0.9533245000000001,1.2236768999999998,0.8612158999999999,0.7471751999999999,1.1259253,1.0563562,0.9096911,770.0,807.0696,790.9524,857.4359,767.5824,-0.5975341796875,0.02093505859375,0.82891845703125,1.936492919921875,-3.745880126953125,0.725250244140625,48.0,52.0,-4.0
833.5861321776814,56.8633212344148,,,,,,,27.93853075400412,28.03278768125855,0.06821529178498162,0.03351606951643593,838.4615384615386,57.02307692307691,0.06800917431192659,69.23076923076917,6.338028169014084,47.1830985915493,10.923076923076923,171.875,,,0.02680801837576609,0.00782474596703465,0.0007049572355844457,3.4260560647856466,0.7586232835159241,0.22142757420503206,-4.850464007359618,2021-09-24 15:34:53,2021-09-24 15:34:53.000,0.14858548,-0.32009438,0.10761689999999999,0.22914980000000001,0.29611254,0.114892945,-0.02714106,0.18924399,0.47450912,0.42187798,0.45026812,0.62045616,1.0247048,0.9079708000000001,1.0995941,0.95528907,0.8259697,0.8946299999999999,1.0852296000000001,0.8555384,801.4286,802.2344400000003,815.12823,859.85345,757.50916,-0.595458984375,0.01995849609375,0.82470703125,2.01873779296875,-4.44122314453125,-0.157012939453125,52.0,43.0,9.0
834.642280796127,56.52575844995331,,,,,,,27.959467287204326,28.04495398456236,0.0677245327136267,0.033498743031008534,838.4615384615386,57.02307692307691,0.06800917431192659,69.23076923076917,6.293706293706294,47.552447552447546,11.0,171.875,,,0.0295065691875249,0.008384947608436936,0.0007359393536733437,3.518992671801,0.7638755467929921,0.2170722186818437,-4.781317131974912,2021-09-24 15:34:54,2021-09-24 15:34:54.036,-0.24875027,-0.33855155,0.15325484,0.30647343,0.24547596,0.045734145,-0.049954448,0.15284096,0.46395410000000004,0.30553687,0.32949209999999995,0.5702658,0.93035054,0.92288935,1.1480616000000001,0.94163364,0.915366,0.90228903,0.973159,0.94147336,751.0622599999997,803.8461,865.8974599999997,798.20514,839.707,-0.6505126953125,0.02166748046875,0.7874755859375,1.532745361328125,6.6094970703125,-0.740203857421875,53.0,40.0,13.0
835.5567509413664,56.26663301640456,,,,,,,27.899788526976113,27.977430597732862,0.06734028891875109,0.033390656583820635,846.1538461538463,45.61846153846162,0.05391272727272737,69.23076923076917,6.293706293706294,46.853146853146846,11.0,171.875,,,0.03238057911675781,0.008961150421343121,0.0007718313171917985,3.613439970791666,0.768887229175927,0.2127853888236788,-4.7148566649980745,2021-09-24 15:34:55,2021-09-24 15:34:55.007,-0.37321457,-0.6088733000000001,-0.044522222,0.34075814,-0.0023135825,-0.25168967,-0.16488142,0.23181763,0.42599827,0.025534714,0.19437665,0.34404546,0.96747494,0.9191236999999999,1.2787483,0.9247109,1.0874854,0.90438396,1.1195655,1.0229092,826.4103,758.315,700.696,863.0769,783.69965,-0.81256103515625,-0.014892578125,0.60931396484375,1.614990234375,10.534820556640623,-2.175750732421875,59.0,44.0,15.0
837.6489707475622,55.331457080629576,,,,,,,28.103272915268892,28.172837028697906,0.06605566175440873,0.033550179008980385,846.1538461538463,45.61846153846162,0.05391272727272737,61.53846153846154,6.338028169014084,47.88732394366197,10.923076923076923,171.875,,,0.03682070386974914,0.00989365475821,0.0008434658524430897,3.7216483462993697,0.7742301981227573,0.2080342165837928,-4.615861660841426,2021-09-24 15:34:56,2021-09-24 15:34:56.007,-0.37321457,-0.6088733000000001,-0.044522222,0.34075814,-0.0023135825,-0.25168967,-0.16488142,0.23181763,0.42599827,0.025534714,0.19437665,0.34404546,0.96747494,0.9191236999999999,1.2787483,0.9247109,1.0874854,0.90438396,1.1195655,1.0229092,783.69965,760.7326,758.71796,845.7509,749.0476,-0.8955078125,-0.06072998046875,0.4713134765625,2.549591064453125,2.75146484375,-3.24493408203125,66.0,49.0,17.0
838.9490790899241,54.970070628000535,,,,,,,28.1032729152689,28.172837028697906,0.06552253527428746,0.03349818673828785,846.1538461538463,45.61846153846162,0.05391272727272737,61.53846153846154,6.338028169014084,47.88732394366197,10.923076923076923,171.875,,,0.04113957087207348,0.010852165474878654,0.000928293065979754,3.790908917423552,0.7773913077610713,0.20506726083237486,-4.523390635971568,2021-09-24 15:34:57,2021-09-24 15:34:57.001,-0.37321457,-0.6088733000000001,-0.044522222,0.34075814,-0.0023135825,-0.25168967,-0.16488142,0.23181763,0.42599827,0.025534714,0.19437665,0.34404546,0.96747494,0.9191236999999999,1.2787483,0.9247109,1.0874854,0.90438396,1.1195655,1.0229092,797.8022,793.36993,769.19415,828.4249,989.19415,-0.91229248046875,-0.05157470703125,0.45758056640625,1.5850830078125,7.4468994140625,-1.62994384765625,80.0,57.99999999999999,22.00000000000001
839.9241603466955,54.26099337367636,,,,,,,28.252204922202694,28.342563396134647,0.06460225331686975,0.03363661418019102,846.1538461538463,45.61846153846162,0.05391272727272737,61.53846153846154,6.338028169014084,47.88732394366197,10.923076923076923,171.875,,,0.0458913644307051,0.011959424247324177,0.0010379840436775594,3.837255329492381,0.7792888577857764,0.20308496330601644,-4.42623567147425,2021-09-24 15:34:58,2021-09-24 15:34:58.008,-0.37321457,-0.6088733000000001,-0.044522222,0.34075814,-0.0023135825,-0.25168967,-0.16488142,0.23181763,0.42599827,0.025534714,0.19437665,0.34404546,0.96747494,0.9191236999999999,1.2787483,0.9247109,1.0874854,0.90438396,1.1195655,1.0229092,824.3956,751.8681,770.80585,786.9231,690.2198,-0.9566650390625,-0.07049560546875,0.3929443359375,-1.07666015625,-30.52032470703125,8.949737548828125,100.0,74.0,26.0
841.4075286415712,53.804218949140385,,,,,,,28.300703867419596,28.378706550577718,0.06394549266275971,0.033634954411580174,846.1538461538463,45.61846153846162,0.05391272727272737,61.53846153846154,6.382978723404255,48.226950354609926,10.846153846153848,171.875,,,0.050208865996615684,0.01302739145394127,0.0011680163801229743,3.854099738549397,0.7795890398301171,0.2022752634117191,-4.340701103286906,2021-09-24 15:34:59,2021-09-24 15:34:59.000,-0.37321457,-0.6088733000000001,-0.044522222,0.34075814,-0.0023135825,-0.25168967,-0.16488142,0.23181763,0.42599827,0.025534714,0.19437665,0.34404546,0.96747494,0.9191236999999999,1.2787483,0.9247109,1.0874854,0.90438396,1.1195655,1.0229092,779.67035,757.1062,790.9524,744.21246,802.2344400000003,-0.7393798828125,-0.0068359375,0.69915771484375,0.964508056640625,-4.344024658203125,-0.246734619140625,100.0,90.0,10.0
842.6623022367703,53.26590958270436,,,,,,,28.263343185959755,28.328571290721225,0.06321145426977669,0.033540533510206035,846.1538461538463,45.61846153846162,0.05391272727272737,61.53846153846154,6.382978723404255,47.51773049645389,10.846153846153848,171.875,,,0.05503683087235525,0.014364185950227919,0.0013346157353743007,3.8315314952798962,0.7780637407499063,0.20306860108246827,-4.243017257127886,2021-09-24 15:35:00,2021-09-24 15:35:00.001,-0.37321457,-0.6088733000000001,-0.044522222,0.34075814,-0.0023135825,-0.25168967,-0.16488142,0.23181763,0.42599827,0.025534714,0.19437665,0.34404546,0.96747494,0.9191236999999999,1.2787483,0.9247109,1.0874854,0.90438396,1.1195655,1.0229092,844.9450699999999,789.7436,799.81683,792.1612,769.19415,-0.703369140625,0.02191162109375,0.73809814453125,1.996307373046875,-4.957122802734375,0.082244873046875,95.0,91.0,4.0
843.6619718309859,51.91008744818664,,,,,,,28.547738120527683,28.632558119586573,0.0615294859569491,0.033837886586935984,850.0,39.91615384615382,0.04696018099547508,61.53846153846154,6.338028169014084,47.88732394366197,10.923076923076923,171.875,,,0.06050618729055075,0.016028957279945553,0.0015533036406596775,3.774804950428833,0.7748417170096438,0.2052666898515164,-4.133358362514722,2021-09-24 15:35:01,2021-09-24 15:35:01.000,-0.37321457,-0.21274320000000002,-0.044522222,0.34075814,-0.0023135825,0.45900023,-0.16488142,0.23181763,0.42599827,0.94837546,0.19437665,0.34404546,0.96747494,1.2878041,1.2787483,0.9247109,1.0874854,1.2335589,1.1195655,1.0229092,808.2784,799.0110000000003,789.34064,834.0659,840.9158,-0.51324462890625,0.013427734375,0.87738037109375,1.742095947265625,-5.802001953125,0.61309814453125,97.0,88.0,9.0
845.7719585379159,48.330769328143035,,,,,,,28.642135670311863,28.72588044431845,0.057143972249555676,0.03386508074803693,853.8461538461537,45.61846153846145,0.05342702702702694,61.53846153846154,6.382978723404255,48.226950354609926,10.846153846153848,171.875,,,0.0637993690938654,0.017446344035620932,0.0017892950676338677,3.6568904616121034,0.768343021565187,0.21010829545779466,-4.048625163136834,2021-09-24 15:35:02,2021-09-24 15:35:02.001,-0.37321457,0.17974997,0.051042872999999996,0.34075814,-0.0023135825,0.40823218,-0.12899733,0.23181763,0.42599827,0.78868043,0.3460717,0.34404546,0.96747494,1.0816339,1.0776303,0.9247109,1.0874854,1.0244971999999999,1.0772173,1.0229092,744.21246,802.2344400000003,803.0403,788.5348,715.2015,-0.50469970703125,0.01959228515625,0.87677001953125,2.213134765625,-3.985137939453125,0.067291259765625,82.0,73.0,9.0
847.9120879120877,44.12958863040753,,,,,,,28.53689600522232,28.633586894273318,0.052045004735187736,0.03365548906784903,853.8461538461537,45.61846153846145,0.05342702702702694,61.53846153846154,6.428571428571428,47.85714285714286,10.769230769230768,117.1875,,,0.0633166689205906,0.017940887372041418,0.0019256566823056488,3.5291826768424803,0.7611712346296041,0.2156791824985992,-4.0206729602502636,2021-09-24 15:35:03,2021-09-24 15:35:03.000,-0.37321457,0.13430811,0.4069034,0.34075814,-0.0023135825,0.558863,0.2959926,0.23181763,0.42599827,0.71308994,0.5179175,0.34404546,0.96747494,1.0152358,1.0400589,0.9247109,1.0874854,0.77295184,1.069832,1.0229092,852.6007,801.8315,805.05493,852.6007,780.87915,-0.4747314453125,0.03167724609375,0.91143798828125,4.65057373046875,-5.63751220703125,-3.648681640625,65.0,60.0,5.0
848.4615384615386,43.029264489252654,,,,,,,28.27463722964168,28.376026985932327,0.050714454973733857,0.03332459510293217,853.8461538461537,45.61846153846145,0.05342702702702694,61.53846153846154,6.428571428571428,47.14285714285714,10.769230769230768,101.5625,,,0.06330703475491907,0.01874939650663773,0.002101129558027948,3.3764838634943204,0.7522441731722167,0.2227892101914919,-3.9765937133963623,2021-09-24 15:35:04,2021-09-24 15:35:04.001,0.8356759,-0.101360254,0.49315563,0.45928356,0.8077545,0.100049764,0.25906652,-0.14863956,1.2320959999999999,0.54319334,0.6845788,0.73026854,1.0997358999999998,0.73343736,0.9815195999999999,0.97048455,0.97858554,0.77034634,1.0886427,0.5810951999999999,819.5604,793.36993,807.0696,823.5897,963.8095,-0.47222900390625,0.047607421875,0.90692138671875,1.428070068359375,-3.48419189453125,0.067291259765625,51.0,50.0,1.0
848.0087288597928,43.28931850411857,,,,,,,28.32309662091705,28.422870104775058,0.051048199188142886,0.03339953429370879,853.8461538461537,45.61846153846145,0.05342702702702694,61.53846153846154,6.382978723404255,46.80851063829788,10.846153846153848,101.5625,,,0.06372664501878772,0.020154306998513317,0.002368876767396397,3.1619368020685865,0.7388611191086119,0.2336735884870431,-3.9043372666055607,2021-09-24 15:35:05,2021-09-24 15:35:05.031,1.2202516,0.3290558,0.60955477,0.45928356,1.2575343,0.2795362,0.183672,-0.14863956,1.3133868,0.65499353,0.52541465,0.73026854,1.0164951,0.76479506,0.80648977,0.97048455,0.8724864999999999,0.7663356,0.9275696,0.5810951999999999,841.7216,800.6227,807.8755,815.5311,709.5604,-0.47052001953125,0.04730224609375,0.92535400390625,2.071075439453125,-5.330963134765625,2.579498291015625,40.0,48.0,-8.0
847.4725274725274,44.37585124789658,,,,,,,27.9338296309832,28.028198711162325,0.05236258381170369,0.03296133942452634,850.0,39.91615384615382,0.04696018099547508,61.53846153846154,5.7142857142857135,46.42857142857143,10.769230769230768,109.375,,,0.0631521969508283,0.02118873774895601,0.002571482550537161,2.9804605493283747,0.7266188071715922,0.2437941368944912,-3.8542854767179993,2021-09-24 15:35:06,2021-09-24 15:35:06.001,1.2066987,0.3073714,0.28649038,1.0520153,0.9661943999999999,0.34585968,0.3762368,0.9032924999999999,0.85858876,0.68124604,0.5564247,0.7749469,0.97283435,0.9156711999999999,1.0177921,0.97282714,0.5987697,0.69177586,0.7167720000000001,0.5783668000000001,779.67035,802.2344400000003,789.34064,785.3113400000003,761.9414,-0.44915771484375,0.051025390625,0.91351318359375,2.7215576171875,-4.3365478515625,-0.336456298828125,35.0,52.0,-17.0
846.868131868132,45.380876742556936,,,,,,,27.903334174696603,27.999789178851643,0.053586709707035364,0.03294885369360138,850.0,39.91615384615382,0.04696018099547508,61.53846153846154,5.7142857142857135,46.42857142857143,10.769230769230768,109.375,,,0.06263295961849934,0.022755280536140413,0.0028481833609582336,2.7524582489336646,0.7098311232824095,0.2578898784595213,-3.78295804904018,2021-09-24 15:35:07,2021-09-24 15:35:07.001,1.2014987,0.34951082,0.40470314,1.1286502,0.84823877,0.39136213,0.3617469,0.76073056,0.8185001999999999,0.5929481,0.6172012,0.8212552,0.9710235,0.78239167,0.9029146,0.98349947,0.6127595,0.5787108,0.7587341999999999,0.5985655,748.24176,791.3553,801.02563,782.0879,720.0366,-0.44622802734375,0.0350341796875,0.9163818359375,1.428070068359375,-3.75335693359375,-0.246734619140625,34.0,51.0,-17.0
845.9901800327333,46.25874603838106,,,,,,,28.053203890477647,28.153933851521067,0.05468000353927417,0.03316020038127654,846.1538461538463,45.61846153846145,0.053912727272727175,61.53846153846154,5.673758865248227,46.80851063829788,10.846153846153848,109.375,,,0.05857525535178677,0.0227512094324113,0.002895461983215505,2.574599628463736,0.6954870020196475,0.27013404116532275,-3.7831369731339866,2021-09-24 15:35:08,2021-09-24 15:35:08.002,1.2836646,0.4847431,0.5391922,1.2499790000000002,0.89032376,0.40713617,0.28031206,0.8240462,0.78702545,0.36836085,0.6753075,0.80770314,1.0188545,0.7712651,0.7871577,1.0030888,0.69551945,0.68588364,0.7517589,0.63524836,838.0952,796.99634,805.4579,825.6044,728.9011,-0.4447021484375,0.03564453125,0.91864013671875,1.547698974609375,-4.0374755859375,-0.037384033203125,36.0,51.0,-15.0
846.0992907801419,46.130914210547076,,,,,,,27.811100516140147,27.907474798115448,0.05452186842990056,0.032869783510274614,846.1538461538463,45.61846153846145,0.053912727272727175,61.53846153846154,5.673758865248227,46.09929078014184,10.846153846153848,109.375,,,0.05429477408450275,0.02258252474596612,0.002901135532249553,2.404282722825371,0.6805695614136477,0.28306552925434764,-3.790578913138103,2021-09-24 15:35:09,2021-09-24 15:35:09.017,0.3659975,-0.5205837999999999,0.15632041,0.48543528,0.37127662,-0.081979185,0.11735312,0.56895244,0.99006844,0.8023239999999999,0.70991343,0.68263876,1.0488157,0.78545094,0.9330214,0.76662004,0.782837,0.6034094,0.7836909000000001,0.5820377,795.78754,817.9487,822.7839,817.5458,660.40295,-0.450439453125,0.02349853515625,0.91339111328125,1.51031494140625,-3.641204833984375,-0.35888671875,36.0,49.0,-13.0
846.6448445171851,45.29617725233482,,,,,,,27.811100516140147,27.907474798115448,0.05350080089150701,0.03284860316134086,846.1538461538463,45.61846153846145,0.053912727272727175,61.53846153846154,5.673758865248227,46.09929078014184,10.846153846153848,109.375,,,0.05269528361302612,0.02347500783459395,0.0030232301460346497,2.2447397668328657,0.6653989184040563,0.2964258611335053,-3.7518189201458454,2021-09-24 15:35:10,2021-09-24 15:35:10.001,0.45435297,-0.3238042,0.21403560000000002,0.45694324,0.5492608,-0.09270698,0.32127348,0.68342686,1.0714941999999998,0.71267426,0.5731329000000001,0.6819515,0.9763322,0.7582358,0.81297696,0.78290486,0.72124803,0.46066836,0.72524446,0.5620191999999999,770.40295,795.78754,813.1135,765.56775,647.50916,-0.4500732421875,0.0172119140625,0.90869140625,-0.112152099609375,-3.51409912109375,3.03558349609375,32.0,47.0,-15.0
847.6373626373628,44.298595079380576,,,,,,,27.63506350489821,27.735009811261463,0.0522612582125317,0.03260246034803574,850.0,39.91615384615382,0.04696018099547508,61.53846153846154,5.7142857142857135,45.714285714285715,10.769230769230768,109.375,,,0.05141445819880972,0.02490536614011069,0.003186509050700937,2.0643927862600457,0.6466712273958454,0.31325009063192205,-3.6926719910949424,2021-09-24 15:35:11,2021-09-24 15:35:11.000,0.21677211,-0.23520842,0.41831112,0.37020934,0.27629846,-0.01011333,0.17677648,0.3457502,0.82087666,0.69993997,0.5522100000000001,0.61124325,0.9630486999999999,0.7609505999999999,0.8198983,0.7889816,0.81502676,0.5408725000000001,0.71879685,0.57832,874.7619,776.4469,816.7399,857.03296,894.90845,-0.4620361328125,0.02545166015625,0.91455078125,2.340240478515625,-3.536529541015625,0.321502685546875,30.0,55.00000000000001,-25.00000000000001
847.5177304964539,44.16295506554222,,,,,,,27.59751786650792,27.69573331119216,0.05210859133256447,0.0325627616667583,846.1538461538463,45.61846153846145,0.053912727272727175,61.53846153846154,5.673758865248227,46.09929078014184,10.846153846153848,109.375,,,0.04689475244354638,0.024202324549118456,0.003056518871018748,1.9376135688278118,0.6324002483946013,0.3263809969999236,-3.721306594683858,2021-09-24 15:35:12,2021-09-24 15:35:12.003,0.2275967,-0.03540792,0.5693085999999999,0.55187106,0.3557681,0.1781089,0.28398168,0.31824905,0.3248891,0.4693498,0.4417898,-0.21126577,0.8673687,0.7704393,0.90754235,0.77022785,0.9486093000000001,0.6942255,0.79741967,0.57184327,801.02563,791.75824,792.5641,753.4798599999997,664.43225,-0.45721435546875,0.02288818359375,0.9102783203125,1.876678466796875,-3.790740966796875,-0.16448974609375,24.0,50.0,-26.0
848.0769230769231,44.12748702701332,,,,,,,27.66585467155788,27.763912497106837,0.05203241100690914,0.03262186945399115,853.8461538461537,45.61846153846145,0.05342702702702694,61.53846153846154,5.7142857142857135,46.42857142857143,10.769230769230768,109.375,,,0.0435596335485062,0.024200763248924086,0.0029811323644530533,1.7999280890631733,0.6157575905494679,0.34210121742694594,-3.721371107105108,2021-09-24 15:35:13,2021-09-24 15:35:13.001,1.4672049999999999,-0.17978963,-0.11608721,0.06914221,0.90390694,0.013995577,-0.033630624,0.069737144,1.1061931,0.35095936,0.56500703,0.707674,1.0334412,0.5433821999999999,1.0063853,0.87284166,0.8049456,0.6784775,0.5911761999999999,0.5740057,803.0403,804.65204,806.26373,742.1978,663.6264,-0.45721435546875,0.02593994140625,0.909912109375,1.83929443359375,-3.342132568359375,0.112152099609375,21.0,47.0,-26.0
848.5714285714287,44.1463978558513,,,,,,,27.735009811261463,27.830828963835675,0.05202437457760254,0.03268435499643607,853.8461538461537,45.61846153846145,0.05342702702702694,55.76923076923072,5.7142857142857135,47.14285714285714,10.769230769230768,109.375,,,0.04136989426883038,0.024254246929866774,0.0029103113068634297,1.7056763043789798,0.6036364595671616,0.35389860198998296,-3.7191635458037835,2021-09-24 15:35:14,2021-09-24 15:35:14.006,1.3150764,-0.22537735,-0.02332562,0.45649597,0.97429395,-0.10535107,0.13505736,0.60085046,0.56647533,0.4912561,0.43268046,0.40773487,0.9970995999999999,0.65290654,1.0383328,0.87399966,0.9939423000000001,0.9187107,0.61000365,0.7658461,820.3663,809.0842,821.5751,812.3077,622.52747,-0.51080322265625,0.01947021484375,0.87689208984375,1.772003173828125,-0.814971923828125,-0.485992431640625,22.0,39.0,-17.0
