HRV_MeanNN,HRV_SDNN,HRV_SDANN1,HRV_SDNNI1,HRV_SDANN2,HRV_SDNNI2,HRV_SDANN5,HRV_SDNNI5,HRV_RMSSD,HRV_SDSD,HRV_CVNN,HRV_CVSD,HRV_MedianNN,HRV_MadNN,HRV_MCVNN,HRV_IQRNN,HRV_pNN50,HRV_pNN20,HRV_HTI,HRV_TINN,HRV_ULF,HRV_VLF,HRV_LF,HRV_HF,HRV_VHF,HRV_LFHF,HRV_LFn,HRV_HFn,HRV_LnHF,Time,TimeStamp,Delta_TP9,Delta_AF7,Delta_AF8,Delta_TP10,Theta_TP9,Theta_AF7,Theta_AF8,Theta_TP10,Alpha_TP9,Alpha_AF7,Alpha_AF8,Alpha_TP10,Beta_TP9,Beta_AF7,Beta_AF8,Beta_TP10,Gamma_TP9,Gamma_AF7,Gamma_AF8,Gamma_TP10,RAW_TP9,RAW_AF7,RAW_AF8,RAW_TP10,AUX_RIGHT,Accelerometer_X,Accelerometer_Y,Accelerometer_Z,Gyro_X,Gyro_Y,Gyro_Z,Attention,Meditation,A_M
913.1360946745564,53.555276643747995,,,,,,,30.61979214534718,30.72027635147591,0.05864982991701277,0.03353256138260545,923.0769230769232,45.61846153846162,0.04942000000000009,61.53846153846154,11.538461538461537,48.46153846153846,11.818181818181818,195.3125,,,0.03170341048400956,0.013622407354422718,0.0006527083563877629,2.3272986674940808,0.6895264617590392,0.296277599171011,-4.29603924245342,2021-09-24 14:59:00,2021-09-24 14:59:00.003,0.7323739,-0.08050721,0.20037891,0.97092104,0.5767533,-0.18977956,-0.10252261,0.63719535,0.48260033,0.00713135,0.24641699,0.44362408,0.792877,0.6140715,0.4589646,0.67415255,0.30373263,0.38581327,0.5973954,0.40669474,742.1978,790.9524,797.8022,575.78754,812.71063,-0.81402587890625,0.0166015625,0.61114501953125,1.83929443359375,-3.237457275390625,0.157012939453125,38.0,59.0,-21.0
912.4260355029587,52.79565285079684,,,,,,,30.76923076923077,30.88547659591271,0.0578629398948422,0.03372243839169909,923.0769230769232,45.61846153846162,0.04942000000000009,61.53846153846154,11.538461538461537,48.46153846153846,11.818181818181818,195.3125,,,0.03283547426953623,0.0141675338142903,0.000693885278238928,2.3176563190141266,0.6884195584874531,0.29703263285398995,-4.256802283172665,2021-09-24 14:59:01,2021-09-24 14:59:01.001,0.93075323,0.03179163,0.22833209999999998,1.2448893,0.5578103,-0.23420180000000002,-0.105717085,0.75677854,0.3778603,0.16116689999999995,0.25389028,0.311817,0.6826366999999999,0.44882706,0.5166993,0.5459224,0.28117,0.43444958,0.46690255,0.39389798,786.5201400000003,809.0842,787.7289400000003,885.2381,999.67035,-0.80419921875,0.01690673828125,0.60980224609375,2.175750732421875,-3.970184326171875,0.25421142578125,39.0,55.00000000000001,-16.000000000000007
912.0118343195268,52.43489956948193,,,,,,,30.746861278255555,30.86203022917514,0.05749366137184483,0.03371322621180295,923.0769230769232,45.61846153846162,0.04942000000000009,61.53846153846154,11.538461538461537,48.46153846153846,11.818181818181818,195.3125,,,0.033003131087334554,0.014247528351968743,0.0007078906889971322,2.3164109782434044,0.6881594835340809,0.2970800475379937,-4.251171836296142,2021-09-24 14:59:02,2021-09-24 14:59:02.005,0.8592945,-0.1093272,0.3114386,0.9668266999999999,0.57960945,-0.16421093,-0.10918569,0.42993176,1.417349,0.120998815,0.21783349,1.3820938999999999,0.83273304,0.44726196,0.50996995,0.8178746,0.3859552,0.5446703,0.38979074,0.34549640000000004,816.7399,795.78754,803.0403,872.3443,823.9927,-0.80645751953125,0.02911376953125,0.61962890625,1.757049560546875,-3.63372802734375,-0.0897216796875,41.0,50.0,-9.0
911.7159763313608,52.041620324180286,,,,,,,30.836241877502488,30.955940671088968,0.057080956871667116,0.03382220195546418,923.0769230769232,45.61846153846162,0.04942000000000009,61.53846153846154,11.538461538461537,49.230769230769226,11.818181818181818,195.3125,,,0.03300221016421185,0.01422689170934255,0.0007101409544549356,2.319706288516969,0.6884174262537525,0.29676922016445034,-4.252621322971897,2021-09-24 14:59:03,2021-09-24 14:59:03.022,0.84002906,-0.27034566,0.32749662,0.97944325,0.50934786,-0.10277306,-0.12011316400000001,0.48074088,1.3250687,-0.09940751,0.1907974,1.2993605,0.68865997,0.36645406,0.40730079999999996,0.5687703000000001,0.27840224,0.32929453,0.36578062,0.30395004,833.2601,795.38464,796.1905,994.0293,829.6337,-0.8079833984375,0.02166748046875,0.61895751953125,2.16827392578125,-4.32159423828125,-0.396270751953125,36.0,45.0,-9.0
911.1242603550296,51.64210103397502,,,,,,,31.132323963039816,31.25088870806405,0.056679536788815287,0.03416913072966443,923.0769230769232,45.61846153846162,0.04942000000000009,61.53846153846154,12.307692307692307,49.230769230769226,11.818181818181818,195.3125,,,0.03301896055299703,0.014201058024678137,0.0007019251950511378,2.3251056713955927,0.6890154687713027,0.29633727070896376,-4.254438808370413,2021-09-24 14:59:04,2021-09-24 14:59:04.000,0.72530705,0.0010384516000000001,-0.24071926,0.7642552,0.53522456,-0.13145038,-0.19082839999999998,0.5879813,0.8972582,0.22792919,0.09903957,0.9135396000000001,0.6822636999999999,0.34946109999999997,0.40204796,0.47516584,0.21497989,0.1535741,0.3041778,0.18195106,782.0879,796.99634,815.5311,701.9048,812.3077,-0.80206298828125,0.021728515625,0.61773681640625,2.03369140625,-3.84307861328125,-0.25421142578125,30.0,43.0,-13.0
909.8649442160893,51.762515800733794,,,,,,,31.651550744672186,31.76949659993896,0.056890328756792286,0.03478708674938801,923.0769230769232,45.61846153846162,0.04942000000000009,61.53846153846154,12.977099236641221,49.61832061068703,11.909090909090908,195.3125,,,0.03237865086857356,0.013933974902603738,0.0006750496010355363,2.3237196202013544,0.6890881622060699,0.2965453130470015,-4.273425183538188,2021-09-24 14:59:05,2021-09-24 14:59:05.032,0.22229187,-0.03746582,0.21375652,0.24540116,0.20230117,-0.31273353,-0.14707538,0.1507454,0.7080036999999999,0.23064442,0.03547362,0.53824794,0.42286593,0.36091694,0.41675222,0.3562103,0.14987752,0.1369098,0.25256413,0.19984181,814.3223,792.5641,793.7729,803.0403,1034.7252,-0.80877685546875,0.02203369140625,0.6197509765625,1.89910888671875,-3.117828369140625,-0.0299072265625,26.0,46.0,-20.0
909.2190252495596,51.93059202532125,,,,,,,30.442047437090025,30.559581163741036,0.0571156020531659,0.03348153370276693,915.3846153846154,45.61846153846162,0.04983529411764715,65.38461538461536,12.213740458015266,48.854961832061065,11.909090909090908,195.3125,,,0.03171660688364399,0.013702120883649624,0.0006431424054465642,2.314722454499039,0.6885653310363017,0.2974720920419479,-4.2902046491042185,2021-09-24 14:59:06,2021-09-24 14:59:06.006,0.07782247,0.32598296,0.2434944,-0.5281616,0.116696775,-0.33062705,-0.03317339,0.07784453,0.20687573,0.07330139999999999,0.20014502,-0.068728484,0.29619756,0.23097195,0.43396375,0.15420413,0.058243684000000004,0.107941836,0.32942325,0.26520106,772.01465,811.9048,792.5641,621.7216,636.63007,-0.79986572265625,0.02056884765625,0.6124267578125,2.459869384765625,-3.072967529296875,-0.07476806640625,23.0,50.0,-27.0
909.5713446858484,51.602376715678645,,,,,,,30.081061777326656,30.18597697069138,0.0567326323736609,0.03307169025615706,915.3846153846154,45.61846153846162,0.04983529411764715,61.53846153846154,11.450381679389313,48.854961832061065,11.909090909090908,195.3125,,,0.032018328789761484,0.01396971279314514,0.0006217599442851121,2.2919818942500165,0.6869441134839908,0.29971620421930645,-4.270863664754585,2021-09-24 14:59:07,2021-09-24 14:59:07.000,0.27557638,0.110019356,-0.10802017,0.31450728,0.2591737,-0.24268253,-0.16291118,0.42514792,0.5628793000000001,-0.20419501,0.1295142,0.6711291,0.4876415,0.29576382,0.45008916,0.3861136,0.27967474,0.24209099999999997,0.26817486,0.32540572,765.9707,800.2198,783.2967,574.9817,434.7619,-0.8045654296875,0.01373291015625,0.62567138671875,1.233673095703125,-3.177642822265625,-0.530853271484375,23.0,55.00000000000001,-32.00000000000001
910.6870229007634,50.275277897477714,,,,,,,30.262092870564842,30.355923267006013,0.055205879334195976,0.033229959480670535,923.0769230769232,45.61846153846162,0.04942000000000009,61.53846153846154,11.450381679389313,49.61832061068703,11.909090909090908,195.3125,,,0.03278714110288255,0.014483723146048363,0.0006123232355660107,2.2637232686837123,0.6847317988907484,0.3024803465879907,-4.234729801729228,2021-09-24 14:59:08,2021-09-24 14:59:08.008,0.14388384,-0.53777677,0.52039903,0.57317895,0.27091652,-0.31725440000000005,0.18975143,0.2666128,0.42782570000000003,0.04493976400000002,0.46296509999999996,0.56312895,0.60664433,0.25954074,0.36051,0.61395997,0.23778811,0.31922165,0.20911671,0.23890287,799.41394,811.9048,795.78754,774.0293,713.5897,-0.80029296875,0.01971435546875,0.62481689453125,1.80938720703125,-2.8411865234375,0.590667724609375,26.0,59.0,-33.0
911.7439812096301,48.709595669737794,,,,,,,30.103750199240324,30.21033857260975,0.053424641866145095,0.0330177668508445,923.0769230769232,45.61846153846162,0.04942000000000009,61.53846153846154,11.450381679389313,48.854961832061065,11.909090909090908,195.3125,,,0.03350305969875848,0.015047619275536366,0.0006010646155204206,2.226469123472974,0.6816250503410555,0.30614619495725043,-4.196535487972244,2021-09-24 14:59:09,2021-09-24 14:59:09.002,0.034180882999999995,-0.20330803,0.52225167,0.47822666,0.26597822,0.05173636,0.40605494,0.32001877,0.11572704,0.2954236,0.48455465,0.48587677,0.491646,0.2858828,0.42049849999999994,0.6464626,0.13480507,0.20580958,0.30657476,0.13692503,816.7399,807.0696,815.9341,832.8571,814.3223,-0.80340576171875,0.021240234375,0.62017822265625,2.13836669921875,-2.87109375,0.127105712890625,26.0,55.00000000000001,-29.00000000000001
912.6627218934913,47.898467015981986,,,,,,,29.645552245597052,29.75896241852745,0.05248211181082052,0.032482483982792416,923.0769230769232,45.618461538461546,0.049420000000000006,61.53846153846154,10.769230769230768,48.46153846153846,11.818181818181818,195.3125,,,0.03393605716177588,0.0156362535768816,0.0005784247062432352,2.170344513467777,0.676681146561859,0.31178513013155584,-4.158163113679631,2021-09-24 14:59:10,2021-09-24 14:59:10.000,-0.11988146599999999,0.45075783,0.19004144,-0.054001182,-0.07287267,-0.2989294,0.10661275,0.26313043,-0.05035775,0.2280038,0.24934784,0.3299324,0.4149076,0.30915943,0.3990982,0.7068316,0.11062257,0.092866845,0.22894743,0.28477043,764.35895,788.9377400000003,823.5897,608.4249,504.06595,-0.8072509765625,0.02301025390625,0.61602783203125,1.9140625,-3.8580322265625,0.052337646484375,26.0,52.0,-26.0
912.7218934911244,47.90660625868961,,,,,,,30.022238443459052,30.139225201367196,0.05248762695441518,0.0328930845831091,923.0769230769232,45.618461538461546,0.049420000000000006,61.53846153846154,11.538461538461537,49.230769230769226,11.818181818181818,195.3125,,,0.034130509962254606,0.016091320763628264,0.0005599800648873453,2.121050873549231,0.6721010816821434,0.3168717403545783,-4.12947523535366,2021-09-24 14:59:11,2021-09-24 14:59:11.000,-0.6162454,0.33927205,0.43249577,0.33106822,-0.015233422,-0.09040404,0.23992974,0.120477,0.5676035,0.29175165,0.27719992,0.32332537,0.5780926,0.34024528,0.43199885,0.4976044,0.36421227,0.18115479,0.06458159,0.39022964,826.4103,805.4579,795.78754,954.9450699999999,783.69965,-0.8050537109375,0.02410888671875,0.62200927734375,1.727142333984375,-3.72344970703125,0.157012939453125,25.0,54.0,-29.0
913.01775147929,48.04175127388009,,,,,,,30.113769870600024,30.230639500465887,0.052618638789926994,0.032982677304804954,923.0769230769232,45.61846153846162,0.04942000000000009,61.53846153846154,11.538461538461537,50.0,11.818181818181818,218.75,,,0.034306245274548335,0.016559884206152287,0.0005433416907131504,2.0716476545049134,0.6673137165749397,0.32211738087981745,-4.100772122431579,2021-09-24 14:59:12,2021-09-24 14:59:12.001,0.08085862,0.09624127,0.5324065,0.5292566,0.15356502,0.0021599068,0.34659293,0.42516276,0.5707762,0.19622001,0.33445635,0.7474757,0.42611372,0.23820679999999997,0.48977529999999997,0.66486233,0.07072386,0.13548242,0.14130174,0.26662797,788.1319,808.2784,797.3993,712.3810000000003,588.2784,-0.80078125,0.01483154296875,0.620849609375,1.7645263671875,-3.925323486328125,-0.485992431640625,20.0,55.00000000000001,-35.00000000000001
913.1360946745564,48.10472568876431,,,,,,,29.846018601885767,29.958550291404105,0.05268078435329943,0.032685181076456016,923.0769230769232,45.61846153846162,0.04942000000000009,61.53846153846154,11.538461538461537,49.230769230769226,10.833333333333336,218.75,,,0.03474278363863613,0.017265863472825806,0.0005292847310113955,2.0122239292182917,0.6612895182628594,0.32863614663391705,-4.05902393648457,2021-09-24 14:59:13,2021-09-24 14:59:13.001,0.5004637,0.42761847,0.8651349,0.33387655,0.32429183,0.09959236,0.3997192,0.37113932,0.6451792,0.12002216,0.42547554,0.92726237,0.40291825,0.26597086,0.40188217,0.6525781,0.02602219,0.12838945,0.19613770000000005,0.283246,768.3883,810.293,799.0110000000003,611.6484,615.6777,-0.80078125,0.01544189453125,0.62762451171875,1.996307373046875,-3.237457275390625,-0.710296630859375,20.0,56.00000000000001,-36.00000000000001
913.1532589547857,48.033599884921244,,,,,,,30.23952325185985,30.35644631983892,0.0526019038029843,0.03311549617254024,923.0769230769232,45.61846153846162,0.04942000000000009,61.53846153846154,12.213740458015266,49.61832061068703,10.916666666666664,218.75,,,0.034938995029180145,0.01775082058481746,0.0005186167474214823,1.9683030912421025,0.6566439468063349,0.3336091630034266,-4.031323533998731,2021-09-24 14:59:14,2021-09-24 14:59:14.000,0.34460256,0.5242405,0.8903469,0.26662076,0.22442689999999998,0.067503005,0.50227255,0.36704093,0.6982182,0.3646773,0.68722683,0.84007895,0.51723397,0.30299159999999997,0.28036615,0.3859933,0.111798495,0.18834892,0.117634274,0.14539582,794.17584,803.0403,803.0403,691.02563,690.6227,-0.80413818359375,0.0101318359375,0.6197509765625,1.77947998046875,-2.968292236328125,-0.171966552734375,17.0,62.0,-45.0
913.431952662722,48.112976711214706,,,,,,,30.386709920787748,30.50511833858629,0.05267275418925493,0.03326652831905895,923.0769230769232,45.618461538461546,0.049420000000000006,61.53846153846154,12.307692307692307,50.769230769230774,10.833333333333336,218.75,,,0.035262204518701976,0.01837081431590011,0.0005107896724155236,1.9194687787019988,0.6512693785501185,0.3392966771725904,-3.996992052163818,2021-09-24 14:59:15,2021-09-24 14:59:15.010,0.2125237,0.20596492,0.43877012,-0.02175441,0.34101233,-0.18154958,0.041762587000000004,0.023829617999999997,0.6184571,0.08072878,0.33437115,0.21454929,0.62462604,0.33356532,0.28459433,0.47786817,0.11375976,0.10599038,-0.03964226,0.14389217,839.304,785.7143,802.6374,958.1685,962.6007,-0.81024169921875,0.00506591796875,0.61981201171875,1.79443359375,-3.289794921875,-0.246734619140625,22.0,57.99999999999999,-35.99999999999999
913.6094674556214,48.10560586525242,,,,,,,30.43949739560708,30.55817035013597,0.052654452015723184,0.033317843651927435,923.0769230769232,45.618461538461546,0.049420000000000006,61.53846153846154,12.307692307692307,50.769230769230774,10.833333333333336,218.75,,,0.035359568178517695,0.0187543481974745,0.0005056543102844753,1.8854064031550448,0.6473790938712357,0.34336315649926163,-3.976329649585956,2021-09-24 14:59:16,2021-09-24 14:59:16.002,-0.28003934,0.2804215,1.0003372,-0.04030328,0.45874175,-0.021958542999999997,0.59911036,0.21116658,0.33742940000000005,0.045081444000000005,0.35266566,0.17054708,0.376246,0.37913909999999995,0.39883512,0.48481512,0.07329105,-0.06853587,-0.10746389999999999,0.20498016,834.0659,799.0110000000003,795.38464,907.3993,737.7655599999997,-0.80548095703125,0.012939453125,0.6368408203125,2.489776611328125,-3.446807861328125,0.49346923828125,22.0,53.0,-31.0
913.8461538461537,48.22808674406517,,,,,,,30.55981208355018,30.678019623708753,0.05277484239670431,0.03344087180859868,923.0769230769232,45.61846153846162,0.04942000000000009,61.53846153846154,12.307692307692307,51.53846153846153,10.833333333333336,218.75,,,0.0355817765491182,0.01916740034201953,0.0005053891451596902,1.85636945617056,0.6439608362093384,0.3468926048469592,-3.9545443418654913,2021-09-24 14:59:17,2021-09-24 14:59:17.001,0.8585195999999999,0.30768064,0.77235085,0.9774354999999999,0.6225377,0.10651377,0.57617146,0.8770049000000001,0.6355841999999999,0.41483519999999996,0.76167953,0.79367054,0.37218670000000004,0.28985497,0.23720236,0.55046564,0.00501733,0.07227394,0.07183854,0.14831989999999998,831.6484,809.0842,806.26373,1000.4762,901.75824,-0.80322265625,0.01409912109375,0.6209716796875,2.52716064453125,-3.357086181640625,-0.725250244140625,19.0,50.0,-31.0
914.260355029586,48.53820722037822,,,,,,,30.55981208355019,30.678019623708753,0.05309013669176052,0.03342572158514,923.0769230769232,45.61846153846162,0.04942000000000009,61.53846153846154,12.307692307692307,51.53846153846153,10.833333333333336,218.75,,,0.035522093986623884,0.019427195430807467,0.0005036937568309329,1.8284725715114432,0.6405803971807049,0.3503363447509588,-3.941081368223816,2021-09-24 14:59:18,2021-09-24 14:59:18.024,1.0284303,0.6046876,0.9690293,1.1121954,0.92544305,0.47095457,0.8558522,1.1316823,0.91384983,0.60355663,0.97536284,1.1025138,0.45984316,0.5808934,0.5066125,0.503223,0.059523948,0.14623466,0.16771945,0.13770059,772.8205,784.1025400000003,799.0110000000003,708.7546,948.0952,-0.80169677734375,0.0093994140625,0.62408447265625,1.308441162109375,-2.968292236328125,-0.112152099609375,18.0,45.0,-27.0
914.260355029586,48.53820722037822,,,,,,,30.679654943734786,30.79926418855186,0.05309013669176052,0.03355680334924068,923.0769230769232,45.61846153846162,0.04942000000000009,61.53846153846154,12.307692307692307,52.30769230769232,10.833333333333336,218.75,,,0.03482446725927558,0.01919803058406265,0.0004952828890668963,1.81396040113538,0.6387726497930623,0.3521425547069532,-3.9529475789561848,2021-09-24 14:59:19,2021-09-24 14:59:19.020,1.3527461,0.33529177,0.8015614000000001,1.0880649,1.1857308000000002,0.095713355,0.58099735,1.0773603,1.1009495,0.35478157,0.6951255999999999,1.1185375,0.5293759,0.4235748,0.41708517,0.4721494000000001,0.13472772,0.10328935,0.15185906,0.35345376,768.7912,799.41394,796.1905,596.7399,563.69965,-0.79815673828125,0.00665283203125,0.62066650390625,1.136474609375,-2.97576904296875,-0.336456298828125,17.0,45.0,-28.0
913.96449704142,48.459452448545846,,,,,,,30.836241877502488,30.953625325371018,0.05302115410982941,0.033738993119888136,923.0769230769232,45.61846153846162,0.04942000000000009,61.53846153846154,12.307692307692307,53.07692307692307,11.818181818181818,218.75,,,0.034560820887740734,0.0191232884774872,0.0004947626383258887,1.8072634802548369,0.637902186030631,0.3529657922046221,-3.956848394647348,2021-09-24 14:59:20,2021-09-24 14:59:20.008,0.8438315999999999,-0.16014820000000002,0.075932406,0.73484874,0.7294225000000001,-0.43932196,0.16035584,0.8130975,1.0238730999999999,0.10511315,0.3120906,1.0783728000000001,0.44094506,0.33288090000000004,0.35226196,0.37956026,-0.007234878,0.2513158,0.17758505,0.23668772,676.5201400000002,800.2198,786.1172,698.6813400000003,687.3993,-0.81005859375,0.0081787109375,0.619140625,1.973876953125,-2.429962158203125,0.83740234375,22.0,47.0,-25.0
913.7278106508876,48.30016971559151,,,,,,,30.8734074229638,30.993540796762648,0.052860566519459695,0.0337884072949157,923.0769230769232,45.61846153846162,0.04942000000000009,61.53846153846154,12.307692307692307,53.846153846153854,11.818181818181818,218.75,,,0.035085388112778934,0.0193930213972126,0.0005066328142864898,1.8091759604731747,0.6380896809328703,0.3526963075310725,-3.942841999421424,2021-09-24 14:59:21,2021-09-24 14:59:21.031,-0.29786643,-0.066652596,-0.2763413,-0.21543420000000002,0.28241774,-0.038530674,-0.055138547,-0.2385178,0.46303344,0.23143439,0.09331662,0.16095036,0.3968348,0.5323859999999999,0.5181889000000001,0.29952136,-0.08752924,0.526226,0.36067155,0.21412532,791.75824,821.1722,819.15753,713.9927,865.4945,-0.8043212890625,0.0135498046875,0.6187744140625,2.3028564453125,-3.57391357421875,0.25421142578125,32.0,44.0,-12.0
913.7869822485206,48.344893304605506,,,,,,,30.93277941515572,31.05314470343804,0.05290608669609747,0.03385119291045339,923.0769230769232,45.61846153846162,0.04942000000000009,61.53846153846154,12.307692307692307,54.615384615384606,13.0,234.375,,,0.03541825464831279,0.01942272251461734,0.0005175760066114275,1.8235473745587092,0.6397973324888127,0.35085314558588904,-3.9413116346669104,2021-09-24 14:59:22,2021-09-24 14:59:22.001,0.41561908,0.31050643,-0.33555186,0.25624445,0.34959897,0.14912987,0.045848485,0.35380477,0.25633684,0.22373913,0.4109554,0.5701456,1.3477502000000001,0.7591034000000001,0.89395815,1.3304375,1.0371616,0.71325004,0.8248914,1.1509968000000002,799.0110000000003,795.78754,788.1319,857.8388,657.5824,-0.80731201171875,0.0140380859375,0.616455078125,2.0635986328125,-3.581390380859375,0.3289794921875,49.0,44.0,5.0
913.7869822485206,48.344893304605506,,,,,,,30.95501455358353,31.07563967074255,0.05290608669609746,0.03387552586644835,923.0769230769232,45.61846153846162,0.04942000000000009,61.53846153846154,12.307692307692307,54.615384615384606,13.0,234.375,,,0.035727193531895594,0.019361333970990324,0.0005268533102455243,1.8452857424713984,0.6423977146167448,0.3481291270133475,-3.944477296047197,2021-09-24 14:59:23,2021-09-24 14:59:23.003,0.5234433,0.8094442,-0.20549944,0.38170844,0.523569,0.60818154,0.11687598,0.4796327,0.5115438,0.44040018,0.4792324000000001,0.6149177,1.3271496999999999,0.70195675,0.8927784,1.3092923,0.99849063,0.67657053,0.78929096,1.1128744,782.0879,786.9231,803.8461,603.9927,568.5348,-0.7353515625,0.026611328125,0.7197265625,-3.536529541015625,-18.602294921875,1.801910400390625,56.99999999999999,35.0,21.999999999999996
913.6686390532544,48.28383985319165,,,,,,,30.95501455358353,31.075178399103713,0.0528461170597072,0.03387991360375375,923.0769230769232,45.61846153846162,0.04942000000000009,61.53846153846154,12.307692307692307,54.615384615384606,11.818181818181818,234.375,,,0.036718681773543135,0.01947828561737324,0.0005469556079945882,1.8851084995279408,0.6470945227781986,0.343266460758222,-3.9384549919623217,2021-09-24 14:59:24,2021-09-24 14:59:24.001,0.5716363,0.83062977,1.3877555,0.42072403,0.5948631,0.78141207,1.2165027,0.5344595999999999,0.5115438,0.60571384,0.92417413,0.6149177,1.3389583,0.64864373,0.52647203,1.3179725,0.9684474000000001,0.56492037,0.29424095,1.0906411,763.5531,815.5311,796.99634,671.28204,721.2454,-0.56402587890625,-0.00653076171875,0.8526611328125,15.1629638671875,1.1962890625,-16.16485595703125,60.0,28.000000000000004,32.0
912.8994082840236,48.4351272041541,,,,,,,31.68725897805191,31.801275996300692,0.05305636827522713,0.034710570179483875,923.0769230769232,45.61846153846162,0.04942000000000009,61.53846153846154,13.076923076923077,55.384615384615394,11.818181818181818,234.375,,,0.03799366042953887,0.01972311510657365,0.0005696394043983457,1.9263519086229792,0.6518441813296719,0.3383827110777657,-3.9259639754183095,2021-09-24 14:59:25,2021-09-24 14:59:25.001,0.5489769,0.49867955,1.1207719999999999,1.0422593,0.12064492,0.57706594,0.95646656,0.76803535,0.45325845,0.57405746,0.9621258,0.7803834,0.58270067,0.50596666,0.6227879,0.58637214,0.3215936,0.46981229999999996,0.42983663,0.4519854999999999,826.4103,803.4432400000003,801.8315,921.0989,825.6044,-0.5380859375,0.00439453125,0.865478515625,1.9140625,-6.811370849609375,1.443023681640625,56.99999999999999,22.0,34.99999999999999
911.8614210217264,48.57795298898119,,,,,,,31.593976252720108,31.71614149520174,0.053273394256059606,0.03464778257349626,923.0769230769232,45.61846153846162,0.04942000000000009,61.53846153846154,12.977099236641221,54.961832061068705,11.909090909090908,234.375,,,0.03955475873302275,0.02003025848282769,0.0005961046207578088,1.9747502892653015,0.6572619041634672,0.33283291955257743,-3.9105112246034683,2021-09-24 14:59:26,2021-09-24 14:59:26.005,0.42685404,0.22174333,0.37728468,0.8684094000000001,0.100245535,0.068714105,0.34027028,0.7830581999999999,0.43421128,0.14652164,0.37166995,0.63820577,0.48345998,0.4540316,0.5559803000000001,0.6144761999999999,0.32242295,0.18884304,0.36159346,0.45949915,790.14655,803.8461,802.2344400000003,739.3773,846.5567599999997,-0.5382080078125,0.0045166015625,0.87310791015625,0.83740234375,-1.79443359375,0.590667724609375,45.0,18.0,27.0
911.9201409277747,48.5681530400379,,,,,,,31.622776601683803,31.745053308583998,0.053259217403209616,0.034677133646276566,923.0769230769232,45.61846153846162,0.04942000000000009,61.53846153846154,12.977099236641221,54.961832061068705,11.909090909090908,234.375,,,0.04096745866588925,0.020058556473333388,0.0006202603785452447,2.0423931662456845,0.6645569147820046,0.3253814817661133,-3.9090994594896,2021-09-24 14:59:27,2021-09-24 14:59:27.005,0.02211159,0.045201648,-0.025948716,-0.04524354,-0.46575259999999996,-0.08788513,-0.16947936,-0.0036705513,0.42662089999999997,0.14541155,0.20067711,0.36498985,0.29439676,0.31240836,0.48687020000000003,0.39723808,0.07993277,0.13970493,0.2015934,0.26045468,674.5055,797.3993,776.8498,520.989,900.14655,-0.509765625,0.01739501953125,0.880126953125,1.099090576171875,0.874786376953125,0.485992431640625,36.0,19.0,17.0
912.0375807398708,48.55770712183238,,,,,,,31.622776601683803,31.74460871089123,0.053240906018851765,0.0346726683960002,923.0769230769232,45.61846153846162,0.04942000000000009,61.53846153846154,12.977099236641221,54.961832061068705,11.909090909090908,234.375,,,0.04232818647426069,0.02016292874994657,0.0006425812615369732,2.099307446809921,0.6704531625804379,0.31936873448396,-3.9039095710354346,2021-09-24 14:59:28,2021-09-24 14:59:28.002,0.02211159,-0.38215163,0.42209409999999997,-0.04524354,-0.46575259999999996,-0.29383028,0.23790218,-0.0036705513,0.42662089999999997,0.04118315,0.3421645,0.36498985,0.29439676,0.39553306,0.45775333,0.39723808,0.07993277,0.1651064,0.26891103,0.26045468,784.90845,801.8315,779.2674,687.3993,1035.1282,-0.6842041015625,0.01812744140625,0.756591796875,-1.7645263671875,-5.4730224609375,1.966400146484375,41.0,9.0,32.0
912.3899001761597,48.580885436077345,,,,,,,31.658740194110656,31.780323410035912,0.05324575099603536,0.0346986964542222,923.0769230769232,45.61846153846162,0.04942000000000009,61.53846153846154,12.977099236641221,55.725190839694655,11.909090909090908,234.375,,,0.04346012269510146,0.02017088974226224,0.0006614515065565601,2.154596215160673,0.6759753792141174,0.3137364553310089,-3.903514815829176,2021-09-24 14:59:29,2021-09-24 14:59:29.000,0.43975297,0.37838507,0.57139397,0.313947,0.45105872,0.16624217,0.442096,0.27982417,0.46825323,0.31507644,0.5319577,0.30495584,0.44970977,0.39658967,0.55128706,0.50589275,0.22414453,0.10943766,0.3813432000000001,0.27441922,819.9634,802.6374,820.3663,944.4689,1060.9158,-0.657470703125,0.017822265625,0.7830810546875,2.19818115234375,-4.418792724609375,-0.426177978515625,41.0,13.0,28.0
912.0118343195268,48.7069991726923,,,,,,,31.795641208687172,31.9139873977577,0.053406104328716016,0.03486318928351477,923.0769230769232,45.61846153846162,0.04942000000000009,61.53846153846154,13.076923076923077,55.384615384615394,11.818181818181818,234.375,,,0.044317169766292235,0.02001570675978785,0.000678018730403241,2.214119656035665,0.6816883476446608,0.30788234311835216,-3.911237975655273,2021-09-24 14:59:30,2021-09-24 14:59:30.002,0.15056369,0.63747793,0.8731473,-0.20385997,0.35360825,0.3805706,0.96816856,0.14292456,0.17474191,0.65308344,1.1241704,0.2984173,0.4586738,0.46084702,0.6928894,0.5893107,0.23135296,0.13480349,0.30180943,0.3348282,834.87177,805.8608,811.0989,963.00366,918.2784,-0.5982666015625,0.03997802734375,0.80828857421875,14.5050048828125,-4.1571044921875,-17.83966064453125,40.0,19.0,21.0
911.4792899408284,48.454355354921596,,,,,,,31.795641208687172,31.91600851403437,0.05316012759660965,0.03488355858392711,923.0769230769232,45.61846153846162,0.04942000000000009,61.53846153846154,13.076923076923077,55.384615384615394,11.818181818181818,218.75,,,0.04386345039821815,0.01952168392347845,0.0006758012090371392,2.246909158562095,0.6847144837148734,0.304736166616124,-3.936229435146295,2021-09-24 14:59:31,2021-09-24 14:59:31.018,-0.40675518,0.86498487,1.2160011999999998,-0.68360615,0.18031365,0.7016977,1.1070358999999999,-0.016331268,-0.06389862,0.65308344,1.1182784,0.22600088,0.4912527,0.36601213,0.61864436,0.5761894000000001,0.24034625,0.27491647,0.17707184,0.37513787,841.7216,799.41394,799.81683,1008.1319,817.1429,-0.63653564453125,0.0174560546875,0.7930908203125,1.263580322265625,-3.5589599609375,-0.0,33.0,23.0,10.0
911.3609467455619,48.34981949591195,,,,,,,31.989803889122967,32.11446515310645,0.053052327586087016,0.03510113528932465,923.0769230769232,45.618461538461546,0.049420000000000006,61.53846153846154,13.076923076923077,55.384615384615394,11.818181818181818,218.75,,,0.04325805395410539,0.01911921931040391,0.0006726891098799648,2.2625429026051345,0.6860916696070337,0.3032391866766615,-3.957061203238312,2021-09-24 14:59:32,2021-09-24 14:59:32.000,0.31719443,0.41601859999999996,0.45150290000000004,-0.08234549,0.5065857,0.3081779000000001,0.027401906,0.19137546,0.13634542,0.34619498,0.33548632,0.2676217,0.16084094,0.33324367,0.55105585,0.3290652,0.0077794027,0.044726163,0.19789585,0.18368207,766.3736,799.81683,794.17584,643.0769,682.1612,-0.635986328125,0.02435302734375,0.7991943359375,1.79443359375,-3.461761474609375,0.11962890625,24.0,34.0,-10.0
911.7159763313608,48.71840741034466,,,,,,,32.05426342722927,32.1736631961385,0.05343594789945645,0.035158167959512904,923.0769230769232,45.61846153846162,0.04942000000000009,61.53846153846154,13.076923076923077,55.384615384615394,11.818181818181818,218.75,,,0.043306162736786315,0.019179403445928188,0.0006821842564847093,2.257951497755279,0.685573927133431,0.3036265073961898,-3.953918312934003,2021-09-24 14:59:33,2021-09-24 14:59:33.010,0.14799534,-0.21322674,-0.10180993,-0.20128453,0.27050278,-0.15583606,-0.036460545,-0.14605397,0.5197350000000001,0.13284592,0.31105959999999994,0.38053143,0.3653264,0.3096616,0.4880709,0.41848385,-0.0071280915,-0.05654784700000001,0.1673429,0.272271,830.4396,810.293,804.65204,901.3553,855.0183,-0.632568359375,0.017578125,0.7958984375,1.39068603515625,-4.44122314453125,-0.560760498046875,17.0,36.0,-19.0
912.3076923076924,49.13452130052711,,,,,,,32.04710765899027,32.165308498078645,0.053857401088267504,0.03512752104273807,923.0769230769232,45.61846153846162,0.04942000000000009,61.53846153846154,13.076923076923077,55.384615384615394,11.818181818181818,218.75,,,0.04486810778941736,0.020195157644897398,0.0007218048547992391,2.2217260483110888,0.6820408884908049,0.30698694333141496,-3.9023124238621767,2021-09-24 14:59:34,2021-09-24 14:59:34.026,0.9927039000000001,0.05331663,0.5078600999999999,0.61928487,0.9224976,0.07617392,0.32153925,0.5249588000000001,1.0380921,0.37500120000000003,0.58013827,0.60388356,0.44095743,0.25972724,0.5529101,0.40539148,-0.057831448,-0.024492547000000003,0.2701362,0.3567325,781.28204,795.38464,802.6374,676.1172,784.5055,-0.614990234375,0.01776123046875,0.81036376953125,1.734619140625,-4.493560791015625,-3.401947021484375,13.0,36.0,-23.0
912.7810650887574,49.311147172797696,,,,,,,32.04710765899027,32.165308498078645,0.05402297337095041,0.03510930373635003,923.0769230769232,45.61846153846162,0.04942000000000009,61.53846153846154,13.076923076923077,55.384615384615394,11.818181818181818,218.75,,,0.04628255415689439,0.02132659082000397,0.0007600078548205605,2.170180623219073,0.6769508212396957,0.3119329395889457,-3.8478005895588954,2021-09-24 14:59:35,2021-09-24 14:59:35.020,0.9674686,0.32515484,1.0142369,0.75766605,0.9239642,-0.019254457,0.6281684000000001,0.5064685,1.0380921,0.47509015,0.7810172,0.7287318,0.42903322,0.2902646,0.6220941999999999,0.39700606,0.09219425,0.1127178,0.32489836,0.32204652,799.0110000000003,804.65204,811.0989,865.8974599999997,800.6227,-0.61993408203125,0.00341796875,0.811279296875,1.607513427734375,-4.269256591796875,-1.07666015625,15.0,43.0,-28.0
913.0769230769232,49.20961456638543,,,,,,,32.04710765899027,32.165308498078645,0.05389427037599077,0.035097927511952266,923.0769230769232,45.61846153846162,0.04942000000000009,61.53846153846154,13.076923076923077,55.384615384615394,11.818181818181818,218.75,,,0.04813665634427232,0.023094788359948663,0.0008150439096695006,2.084308182176358,0.6681332743674009,0.32055397569363314,-3.768148299032067,2021-09-24 14:59:36,2021-09-24 14:59:36.013,0.15907238,0.11192345,0.9201497999999999,0.3216064,0.23661678,0.19500126,0.5122471,-0.090434186,-0.08069059,0.60278326,0.7333943,0.5989730999999999,0.38126665,0.25257993,0.4860630999999999,0.19397825,0.13321164,0.18884483,0.23139207,0.2737857,793.36993,804.2491,791.75824,770.0,556.8498,-0.613037109375,-0.00341796875,0.81195068359375,1.57012939453125,-2.758941650390625,-1.667327880859375,14.000000000000002,52.0,-38.0
913.96449704142,48.752000923461644,,,,,,,32.09716453511092,32.20427854533995,0.05334124146099327,0.035118611980019074,923.0769230769232,45.61846153846162,0.04942000000000009,61.53846153846154,13.076923076923077,55.384615384615394,11.818181818181818,218.75,,,0.0477236032968873,0.023793938542954567,0.0008297450158488412,2.0057042347458847,0.6596460678902909,0.32888501527936675,-3.738324413811085,2021-09-24 14:59:37,2021-09-24 14:59:37.025,0.124489345,-0.012048727,0.71090406,0.025037228999999998,0.29130244,0.23666808,0.32823804,0.13674766,0.28862196,0.55796754,0.139096,0.40479505,0.38180152,0.18351822,0.3647495,0.5108146,-0.26223806,0.10169707,0.26980639,0.17864722,797.8022,808.2784,801.4286,797.8022,713.5897,-0.61029052734375,-0.00372314453125,0.81646728515625,1.9439697265625,-4.000091552734375,0.28411865234375,13.0,66.0,-53.0
914.0340575455078,49.49890842628962,,,,,,,35.86501776546683,35.996704305185574,0.054154337048677385,0.039238163468193504,923.0769230769232,45.61846153846162,0.04942000000000009,61.53846153846154,12.977099236641221,54.961832061068705,11.909090909090908,218.75,,,0.047011568613291706,0.024431973126398096,0.000839755547416435,1.9241822332596201,0.6503794151304929,0.3380030248116009,-3.711862630441056,2021-09-24 14:59:38,2021-09-24 14:59:38.058,0.22315395,-0.013867591499999998,0.7769819,0.32269570000000003,0.12276482,0.039104946,0.509617,0.33885175,0.6275497,0.31881020000000004,0.5402978,0.6786668,0.39081448,0.20351356,0.4156253,0.45517263,-0.0064993426,0.10207784,0.28127375,0.24786733,762.74725,804.2491,803.4432400000003,603.9927,701.5018299999997,-0.608642578125,-0.00372314453125,0.8203125,1.973876953125,-4.284210205078125,0.276641845703125,12.0,74.0,-62.0
916.3387000596305,48.14425815336581,,,,,,,31.86887195995491,31.987210085409604,0.05253980667872354,0.034778485245555005,923.0769230769232,45.61846153846162,0.04942000000000009,61.53846153846154,12.403100775193801,55.03875968992248,11.727272727272727,218.75,,,0.04617063978292323,0.02529528663981141,0.0008531023376750367,1.825266518635009,0.6384300311317079,0.3497735944935569,-3.6771371994261273,2021-09-24 14:59:39,2021-09-24 14:59:39.027,0.42732233,0.10146926,0.8774955,0.34929842,0.13157646,0.025029792000000002,0.5504121999999999,0.3599034,0.69023085,0.26201087,0.5791799,0.69777626,0.41126546,0.12944876,0.54544586,0.32531866,0.17413428,0.028733524,0.27164876,0.32262492,841.3186599999997,800.2198,784.5055,1011.3553,890.4762,-0.6026611328125,-0.002197265625,0.82635498046875,2.0037841796875,-3.63372802734375,-0.291595458984375,11.0,78.0,-67.0
917.11389385808,48.557600057771474,,,,,,,31.540806667032165,31.64174045601583,0.05294609577170531,0.034391373719514264,923.0769230769232,45.61846153846162,0.04942000000000009,69.2307692307694,11.627906976744184,54.263565891472865,11.727272727272727,218.75,,,0.04553258999081928,0.025976235881490086,0.0008639334195876241,1.7528555791743672,0.6291398923616445,0.35892283416639664,-3.6505731634755914,2021-09-24 14:59:40,2021-09-24 14:59:40.025,0.35754603,0.5013569999999999,0.73468345,0.67492914,0.17278929999999998,0.12361011,0.46542773,0.88286036,0.39721233,0.3195057,0.60892385,0.8328822,0.44290656,0.2535821,0.5633894,0.470156,0.26124653,0.09702679,0.22789529,0.40152103,677.326,823.9927,782.8938,715.2015,711.9780000000003,-0.60308837890625,-0.00177001953125,0.8221435546875,1.5850830078125,-2.953338623046875,-0.52337646484375,18.0,74.0,-56.0
917.3372781065087,48.20821941453346,,,,,,,32.14000837781092,32.25975729506755,0.05255233877995327,0.035036195677288565,923.0769230769232,45.61846153846162,0.04942000000000009,65.38461538461547,12.307692307692307,54.615384615384606,10.833333333333336,218.75,,,0.04490948008844451,0.02658865190773729,0.0008732110968137467,1.6890469003197512,0.6205423054086041,0.3673919920702794,-3.627270774232567,2021-09-24 14:59:41,2021-09-24 14:59:41.001,0.70068115,0.8790385000000001,1.1879811000000002,0.9886981,0.27316526,0.30807397,0.6763011,1.0798967,0.33932143,0.35230124,0.58442056,0.7499347,0.45251536,0.3368467,0.48600695,0.45867179999999996,0.35326165,0.15250067,0.21634805,0.35306478,786.5201400000003,796.1905,811.0989,796.1905,700.293,-0.6051025390625,0.0067138671875,0.82281494140625,2.086029052734375,-3.177642822265625,0.306549072265625,22.0,69.0,-47.0
918.2840236686391,46.61138138734327,,,,,,,32.33210311004742,32.438220400412625,0.050759220661518216,0.03520926235967533,923.0769230769232,45.618461538461546,0.049420000000000006,59.61538461538453,12.307692307692307,54.615384615384606,10.833333333333336,218.75,,,0.04418816229200944,0.02721767931008889,0.0008806787584945149,1.62350955011914,0.6112918711757318,0.3765249616984838,-3.603888542186592,2021-09-24 14:59:42,2021-09-24 14:59:42.007,0.42914447,0.66388965,1.0708501,0.6131829000000001,0.50815207,0.31356332,0.47445711,0.40481338,0.30755898,0.35241009999999995,0.28865194,0.73174316,0.69801825,0.41835690000000003,0.3518644,0.71202505,0.37560177,0.26355454,0.40169647,0.33943036,820.3663,811.5018299999997,794.57874,879.59705,811.9048,-0.66943359375,0.0592041015625,0.75262451171875,4.246826171875,-7.0880126953125,-1.4654541015625,29.0,57.99999999999999,-29.0
919.3491124260356,44.35197274875921,,,,,,,32.33919581674896,32.447388373290465,0.0482427971586555,0.035176186477637726,923.0769230769232,45.61846153846145,0.049419999999999915,59.61538461538453,12.307692307692307,54.615384615384606,10.833333333333336,218.75,,,0.043679028244655714,0.027585989130105102,0.0008836333609083523,1.5833772731023072,0.6054032584016361,0.3823493419325584,-3.5904472753655314,2021-09-24 14:59:43,2021-09-24 14:59:43.010,0.5823516,0.4119084,1.1132371,1.0423666,0.55581766,0.47238055,0.61820155,0.7108745,0.37812558,0.35220864,0.061404176,0.77263343,0.7246911,0.43919529999999996,0.3478828,0.7657499,0.43499866,0.14567679999999994,0.45811045,0.27666435,797.3993,805.8608,804.2491,754.6886599999997,613.2601,-0.64129638671875,0.0350341796875,0.79180908203125,-1.876678466796875,-7.476806640625,0.64300537109375,33.0,43.0,-10.0
921.3476446034584,41.00079725373025,,,,,,,31.445395049553532,31.568434203576018,0.0445008976729698,0.03412978286072181,923.0769230769232,45.61846153846145,0.049419999999999915,61.53846153846154,10.852713178294573,53.48837209302325,10.75,148.4375,,,0.04318759996314327,0.027885464992703786,0.0008836891695021209,1.548749499943547,0.600188272638176,0.3875308903473759,-3.5796496939092464,2021-09-24 14:59:44,2021-09-24 14:59:44.000,0.67374325,0.23353726,0.6258918000000001,1.216963,0.59580296,0.24519633,0.21761195,0.83511686,0.351296,0.33320066,0.23588066,0.7233838,0.7306366,0.13343059,0.48269558,0.7207799,0.45973554,-0.016927818,0.14266837,0.24286573,754.6886599999997,787.326,807.0696,635.42126,933.9927,-0.63360595703125,0.0350341796875,0.7978515625,2.953338623046875,-3.81317138671875,-1.293487548828125,33.0,33.0,0.0
921.4669051878354,40.915403987657704,,,,,,,31.445395049553532,31.568895418532357,0.04440246715026335,0.03412536562356906,923.0769230769232,45.61846153846145,0.049419999999999915,61.53846153846154,10.852713178294573,53.48837209302325,10.75,148.4375,,,0.043000007030014116,0.02803840083151656,0.0008824147270216064,1.5336112529527706,0.5978798000686171,0.3898509475054233,-3.5741802501284017,2021-09-24 14:59:45,2021-09-24 14:59:45.000,0.45757878,-0.22046317,0.20830108,0.59117645,0.45833692,-0.30096418,-0.13073389,0.66895217,1.0789638000000001,0.42162493,0.5958892,1.423643,0.79990494,0.18528703,0.48172927,0.74607915,0.23151499,-0.045435227,0.11770418,0.2973894,766.77655,809.0842,801.4286,655.56775,641.8681,-0.6300048828125,0.04046630859375,0.80657958984375,2.519683837890625,-3.46923828125,0.515899658203125,32.0,32.0,0.0
921.28801431127,41.09394935669439,,,,,,,31.533477561166514,31.655944392850646,0.044604888719208084,0.03422759991590695,923.0769230769232,45.61846153846145,0.049419999999999915,61.53846153846154,10.852713178294573,54.263565891472865,10.75,148.4375,,,0.043077992267109344,0.02817606741572045,0.0008810312183798758,1.5288859027599633,0.5971849723750323,0.3906013988990198,-3.5692823345664535,2021-09-24 14:59:46,2021-09-24 14:59:46.002,0.38971534,-0.13250415,-0.16744244,0.41053137,0.34911814,-0.22876012,-0.24792072,0.43219507,1.1104106000000002,0.3870739,0.5748015999999999,1.160377,0.7879089,0.18246876,0.3717752,0.7186648,0.14222142,-0.071657345,0.012422436,0.16613926,837.6923,799.0110000000003,799.81683,977.9121,813.91943,-0.633056640625,0.034912109375,0.79443359375,1.981353759765625,-3.476715087890625,-0.25421142578125,27.0,38.0,-11.0
920.8706022659512,41.50454676794741,,,,,,,31.49680645030616,31.619645551635625,0.04507098680945917,0.034203292376587084,923.0769230769232,45.61846153846145,0.049419999999999915,61.53846153846154,10.852713178294573,53.48837209302325,10.75,148.4375,,,0.0434389142717911,0.02832228615923028,0.0008797255145893203,1.533736154898438,0.5979950517744727,0.3898943438639034,-3.5641062874532614,2021-09-24 14:59:47,2021-09-24 14:59:47.009,-0.15418091,-0.26894835,-0.28833600000000004,0.19063827,0.46971154,-0.2489791,-0.29929298,0.5207368,1.1060178,0.20075577,0.25977045,1.2430333999999998,0.7264585,0.11748739,0.33659747,0.6775648,0.06339481,-0.14884223,0.12561274,0.14080155,836.4835,797.3993,796.5934,950.1098599999999,842.9304,-0.63232421875,0.03411865234375,0.79937744140625,1.816864013671875,-3.745880126953125,-0.2691650390625,27.0,54.0,-27.0
919.585798816568,43.86191159856003,,,,,,,33.502620446890475,33.62124666939402,0.047697465157690265,0.036432294289456865,923.0769230769232,45.61846153846145,0.049419999999999915,59.61538461538453,11.538461538461537,54.615384615384606,10.833333333333336,218.75,,,0.04407332314052394,0.028495197122283582,0.0008785015505860777,1.5466930427394054,0.6000695746724864,0.3879694018728377,-3.5580197279341017,2021-09-24 14:59:48,2021-09-24 14:59:48.001,-0.10996513,-0.047875796,-0.028392771,0.11316546,0.31661469999999997,-0.29259914,-0.060910497,0.51589197,1.0839103,0.07122194,0.38794723,1.233252,0.8007876,0.18097448,0.28958645,0.73213035,-0.03797874,-0.2592544,0.101447195,0.06860153,836.08057,786.5201400000003,803.4432400000003,930.7692,1087.1062,-0.62896728515625,0.03656005859375,0.802734375,1.80938720703125,-3.27484130859375,-0.059814453125,28.000000000000004,65.0,-37.0
921.4792899408284,41.14877340819078,,,,,,,31.680020312285727,31.79992373833266,0.04465512557621679,0.03437952502906497,926.9230769230768,39.916153846153996,0.04306307053941924,59.61538461538453,10.769230769230768,55.384615384615394,10.833333333333336,148.4375,,,0.04521701981885228,0.028789598666233412,0.0008774560011340214,1.5706026451798432,0.6038269168589803,0.3844555583247719,-3.5477411144957367,2021-09-24 14:59:49,2021-09-24 14:59:49.060,-0.102601945,-0.20856564,-0.32323116,0.14640361,0.44468040000000003,-0.5918601,-0.36483383,0.4258855,1.0723898,0.07812655,0.17561875,0.9755655999999999,0.8838396000000001,0.16478083,0.22582707,0.73833627,-0.012110606000000001,-0.09332704,-0.029334417,0.08356811,823.1868,805.8608,796.99634,939.6337,912.6374,-0.6314697265625,0.035888671875,0.80010986328125,1.757049560546875,-3.850555419921875,0.157012939453125,34.0,66.0,-32.0
922.4209898628503,41.13352085868886,,,,,,,31.708908553540677,31.830700431493263,0.04459300179715639,0.03437574480851232,930.7692307692308,45.61846153846145,0.0490115702479338,61.53846153846154,10.852713178294573,55.03875968992248,10.75,148.4375,,,0.04638649270428581,0.029100925518865957,0.0008772056885019832,1.5939868535869668,0.6074343109179764,0.3810786202853932,-3.5369853005384253,2021-09-24 14:59:50,2021-09-24 14:59:50.001,0.21347275,-0.22739303,-0.33138049999999997,0.4103564,0.039260004,-0.4298252,-0.17465672,0.09476489999999999,1.0308853,0.09283483,0.07163744400000001,0.8485610999999998,0.85546046,0.21560320000000002,0.23171921,0.8182138000000001,-0.14016935,-0.08937764,-0.19624211,0.006779803,796.1905,808.2784,797.8022,726.8865,637.8388,-0.6358642578125,0.03741455078125,0.8077392578125,1.8243408203125,-3.446807861328125,-0.0,40.0,66.0,-26.0
922.7191413237924,41.16530736697907,,,,,,,31.708908553540677,31.83298744012397,0.044613041524120385,0.034364637226501044,930.7692307692308,45.61846153846145,0.0490115702479338,61.53846153846154,10.852713178294573,55.03875968992248,10.75,148.4375,,,0.04810421153341518,0.029594239390282426,0.0008768513057887541,1.6254586204776966,0.6122052371230139,0.3766353873364653,-3.520175551785277,2021-09-24 14:59:51,2021-09-24 14:59:51.004,0.0860713,-0.06892852,-0.04890965,0.19337068,-0.12541874,-0.11128391,0.12525249,0.19687605,0.8955439000000001,0.11756905,0.29267877,0.91414297,0.75378215,0.042223074000000006,0.1086336,0.79616135,-0.10387394,-0.015837228000000002,-0.31972522,-0.0065062535,806.6667,800.2198,799.41394,867.9121,659.59705,-0.626953125,0.04205322265625,0.810791015625,2.714080810546875,-3.828125,0.755157470703125,40.0,65.0,-25.0
923.0769230769232,41.36850916211337,,,,,,,31.767170262849607,31.889196206431127,0.04481588492562282,0.0344144344514204,930.7692307692308,45.61846153846145,0.0490115702479338,61.53846153846154,10.852713178294573,55.8139534883721,10.75,148.4375,,,0.049531662107265784,0.030033802304346,0.0008755658344302475,1.6491971814071098,0.6157512149678479,0.37336421739605663,-3.5054317881407977,2021-09-24 14:59:52,2021-09-24 14:59:52.008,0.2035309,-0.49802104,-0.27287754,0.35477784,0.27909708,-0.24070506,-0.10650882,0.39433506,1.0101486,-0.041369323,0.32494527,1.0236602,0.7682666,0.15588407,0.061631896,0.80868024,-0.15953842,-0.28287986,-0.3021067,0.073296316,782.0879,798.60803,809.4872,730.1098599999997,695.4579,-0.6226806640625,0.0460205078125,0.8104248046875,1.5850830078125,-3.828125,0.6878662109375,40.0,64.0,-24.0
923.494335122242,41.561492875187,,,,,,,31.73805277711348,31.861332708598965,0.04500459969761,0.03436734971732376,930.7692307692308,45.61846153846145,0.0490115702479338,61.53846153846154,10.852713178294573,55.8139534883721,10.75,148.4375,,,0.05121456198878087,0.030625635102752038,0.0008732674155053288,1.6722775484312713,0.6191804719342028,0.3702617860982724,-3.4859178722832302,2021-09-24 14:59:53,2021-09-24 14:59:53.000,0.5198351999999999,-0.23123753,0.62967616,0.5584674,0.27331984,-0.31413883,-0.13865578,0.41219467,0.87904173,0.19856477,0.1965583,0.9352046999999999,0.85131353,0.27363592,0.38706592,0.86337155,-0.08699119999999999,-0.19327088,-0.17388007,0.23276171,808.2784,803.8461,797.3993,770.40295,760.32965,-0.6173095703125,0.04876708984375,0.802490234375,0.844879150390625,-4.254302978515625,0.37384033203125,36.0,65.0,-29.0
923.3154442456768,41.57959573545399,,,,,,,32.02081885643599,32.146411420675285,0.045032925631849866,0.03468025912053936,930.7692307692308,45.61846153846145,0.0490115702479338,61.53846153846154,11.627906976744184,55.8139534883721,10.75,125.0,,,0.052380587987152345,0.031137116436488668,0.0008711529415937151,1.6822555837498514,0.6207050269735175,0.3689718928380239,-3.4693547168482355,2021-09-24 14:59:54,2021-09-24 14:59:54.010,1.0398222,-0.1633324,0.71470785,1.193494,0.8424431999999998,-0.10286482400000001,0.30840737,0.83612376,1.0277306,0.32512915,0.5184009,1.1250031999999999,0.78565,0.27127832,0.24470995,0.7076826999999999,0.21767464,0.0031585616999999996,0.06854033,0.20950605,848.1685,807.0696,800.6227,991.6117,911.4286,-0.62408447265625,0.04437255859375,0.80413818359375,2.295379638671875,-3.1103515625,-0.112152099609375,32.0,69.0,-37.0
923.4943351222423,41.494702706925295,,,,,,,31.96301949729743,32.08656951080352,0.04493227638633287,0.034610953507437064,930.7692307692308,45.61846153846145,0.0490115702479338,61.53846153846154,11.627906976744184,55.03875968992248,10.75,125.0,,,0.053376832552123665,0.03173974430565628,0.0008718138795041871,1.6817032940814045,0.6207446388338994,0.3691166218313013,-3.4501856198187717,2021-09-24 14:59:55,2021-09-24 14:59:55.037,1.27084,0.059585918,0.5530273,1.3777812,1.0484831000000001,-0.49874404,0.42925903,0.72484744,1.0115764999999999,0.14472692,0.494988,0.9967841000000001,0.76956624,0.07991605,0.10103883599999999,0.5861542,0.33576158,-0.2578588,0.028406447,0.018190293,803.0403,798.20514,797.3993,840.1098599999997,837.28937,-0.62982177734375,0.03875732421875,0.81329345703125,1.80938720703125,-3.6785888671875,-0.5084228515625,33.0,72.0,-39.0
923.9117471675612,41.21446279510182,,,,,,,31.905115428917426,32.029570679930174,0.04460865761416402,0.0345326439746318,930.7692307692308,45.61846153846145,0.0490115702479338,61.53846153846154,11.627906976744184,54.263565891472865,10.75,125.0,,,0.05414789080799162,0.03245157722770889,0.0008769451725023009,1.6685750103313086,0.6189998974822402,0.3709751696205332,-3.4280062321531584,2021-09-24 14:59:56,2021-09-24 14:59:56.000,0.6200886,0.06168156,-0.15590777,0.44559047,0.55696595,-0.514329,-0.40145016,0.19774324,0.48089079999999995,0.19179952,0.22047679,0.49164468,0.24867968,-0.13796024,0.1669594,0.26802245,0.12149792,-0.34086573,-0.16281319,0.027987096,795.78754,805.8608,784.1025400000003,843.7362699999999,919.8901400000001,-0.62310791015625,0.0413818359375,0.80865478515625,2.370147705078125,-2.788848876953125,0.426177978515625,32.0,79.0,-47.0
924.1502683363148,41.11905640003664,,,,,,,31.905115428917426,32.029570679930174,0.04449390733182439,0.03452373117453511,930.7692307692308,45.61846153846145,0.0490115702479338,53.846153846153925,11.627906976744184,54.263565891472865,10.75,125.0,,,0.0547347462486679,0.033520033072264976,0.0008903288207241586,1.6328965466909495,0.6139960721309692,0.37601651701403055,-3.395612016725992,2021-09-24 14:59:57,2021-09-24 14:59:57.018,0.96336293,0.19684365,0.78745,0.72564745,0.68204314,0.028258702000000007,0.01711739,0.28115493,0.48824537,0.26125124,-0.27527854,0.5197988,0.38138629999999996,0.029937856000000002,0.14978336,0.37418670000000004,0.06399564,-0.3069011,-0.18711719,0.06714848,758.71796,797.3993,798.20514,720.4396,712.7839,-0.6231689453125,0.049072265625,0.8082275390625,1.83929443359375,-3.57391357421875,0.082244873046875,28.000000000000004,83.0,-55.0
924.5080500894456,41.040545891173885,,,,,,,31.75261485761225,31.877322939566497,0.04439176693724109,0.034345417386620065,930.7692307692308,45.61846153846145,0.0490115702479338,53.846153846153925,11.627906976744184,53.48837209302325,10.75,125.0,,,0.05487989912124397,0.0345311393321346,0.0009072600989848816,1.5892872399426698,0.6076276900790649,0.3823271683103577,-3.3658937726964067,2021-09-24 14:59:58,2021-09-24 14:59:58.003,0.7482835,0.10357869,0.7909324000000001,0.67188156,0.3761645,0.12029154,-0.031109964,0.1513639,0.8955177,0.2589404,0.104765505,0.61794484,0.78822494,0.13170175,0.12042547,0.781504,-0.03878366,-0.21324942,-0.21385410000000002,-0.057945874,837.6923,798.20514,797.3993,969.85345,776.8498,-0.62060546875,0.0479736328125,0.81036376953125,1.9140625,-3.63372802734375,0.25421142578125,21.0,85.0,-64.0
924.2695289206916,41.09325171985239,,,,,,,31.81806174571981,31.939437402012874,0.04446024718334997,0.03442509003069169,930.7692307692308,45.61846153846145,0.0490115702479338,53.846153846153925,11.627906976744184,53.48837209302325,10.75,125.0,,,0.054765786309014484,0.03571338926672332,0.0009320739899700264,1.5334805078285756,0.5991142946760396,0.3906892142531317,-3.3322296110219747,2021-09-24 14:59:59,2021-09-24 14:59:59.003,0.40196297,-0.2853119,0.04749004,0.25493702,0.27033246,-0.32844195,-0.062964365,0.26434854,1.4622084,0.25278625,0.14279273,1.2738808000000001,0.7724281999999999,-0.07205694,0.0653841,0.846182,-0.20392904,-0.23028727,-0.19407750000000001,-0.010637543999999999,756.30035,799.41394,799.81683,606.0073,588.2784,-0.6212158203125,0.04425048828125,0.8060302734375,1.9439697265625,-3.5888671875,-0.052337646484375,16.0,86.0,-70.0
