HRV_MeanNN,HRV_SDNN,HRV_SDANN1,HRV_SDNNI1,HRV_SDANN2,HRV_SDNNI2,HRV_SDANN5,HRV_SDNNI5,HRV_RMSSD,HRV_SDSD,HRV_CVNN,HRV_CVSD,HRV_MedianNN,HRV_MadNN,HRV_MCVNN,HRV_IQRNN,HRV_pNN50,HRV_pNN20,HRV_HTI,HRV_TINN,HRV_ULF,HRV_VLF,HRV_LF,HRV_HF,HRV_VHF,HRV_LFHF,HRV_LFn,HRV_HFn,HRV_LnHF,Time,TimeStamp,Delta_TP9,Delta_AF7,Delta_AF8,Delta_TP10,Theta_TP9,Theta_AF7,Theta_AF8,Theta_TP10,Alpha_TP9,Alpha_AF7,Alpha_AF8,Alpha_TP10,Beta_TP9,Beta_AF7,Beta_AF8,Beta_TP10,Gamma_TP9,Gamma_AF7,Gamma_AF8,Gamma_TP10,RAW_TP9,RAW_AF7,RAW_AF8,RAW_TP10,AUX_RIGHT,Accelerometer_X,Accelerometer_Y,Accelerometer_Z,Gyro_X,Gyro_Y,Gyro_Z,Attention,Meditation,A_M
837.107258938245,44.461605435992794,,,,,,,26.82743513972382,26.90698384494741,0.053113391338149685,0.0320477870108912,838.4615384615386,45.61846153846145,0.0544073394495412,57.692307692307736,6.338028169014084,47.88732394366197,10.923076923076923,171.875,,,0.017904559884426966,0.014143830237449443,0.0003796078782294012,1.2658918824562824,0.5521327552927734,0.4361610678958132,-4.2584767756016495,2021-09-24 14:48:25,2021-09-24 14:48:25.000,0.40354255,-0.4571249,0.04556366,0.9397095,0.3536187,-0.4019962,-0.06524481,0.5637871999999999,0.5538886,-0.045453444,0.11531880000000001,0.81413424,0.38033340000000004,-0.055319738,0.18423595,0.4909098,0.04038489,-0.35309055,0.0067821285,0.15848303,809.4872,798.20514,807.8755,909.41394,868.71796,-0.493408203125,-0.025146484375,0.8978271484375,2.325286865234375,-3.357086181640625,-0.710296630859375,51.0,31.0,20.0
838.2990249187434,43.21880917297737,,,,,,,27.014496802186517,27.08154483337833,0.05155536137855651,0.03222537066031425,838.4615384615386,45.61846153846145,0.0544073394495412,53.846153846153925,6.338028169014084,48.59154929577465,10.923076923076923,171.875,,,0.01873683411079636,0.014694399500848996,0.0004185560846306556,1.275100361175957,0.5535288189060061,0.4341060796151889,-4.220288844127983,2021-09-24 14:48:26,2021-09-24 14:48:26.048,-0.48606485,0.051197026,0.5349895,1.0030122,-0.11561089,-0.030934205,0.40433309999999995,1.1090821000000002,0.36724767,0.3806489,0.5355187,0.944735,0.5784630999999999,0.23725614,0.33164135,0.645775,0.25146532,-0.072782405,0.05749082,0.30171838,798.20514,805.8608,806.26373,795.38464,562.0879,-0.493408203125,-0.0230712890625,0.89556884765625,2.115936279296875,-2.818756103515625,0.0897216796875,49.0,40.0,9.0
840.4255319148938,40.749572860962964,,,,,,,27.017104253261767,27.09386440954977,0.048486833530766056,0.03214693417476716,838.4615384615386,45.61846153846145,0.0544073394495412,53.846153846153925,6.382978723404255,48.226950354609926,10.846153846153848,132.8125,,,0.01940832234912632,0.01509813261303471,0.0004597121824073661,1.2854783334179012,0.555060046154964,0.4317926111435418,-4.193184210819724,2021-09-24 14:48:27,2021-09-24 14:48:27.012,0.14440206,0.23539835,0.14287677,0.45844814,-0.10474468,0.017294468,0.049780197000000005,0.37222186,0.19629942,0.32902566,0.010655398500000001,0.25490814,0.56112355,0.19768706,0.34917742,0.5884055,0.33338168,0.06900031,0.06743736,0.24866682,733.3333,812.3077,789.7436,595.9341,513.3333,-0.498046875,-0.023193359375,0.89385986328125,1.6748046875,-3.45428466796875,0.4486083984375,46.0,55.00000000000001,-9.000000000000009
841.4075286415712,39.93506536708404,,,,,,,26.82872005482595,26.91550891452869,0.04746221540417886,0.03188552412662644,838.4615384615386,45.61846153846145,0.0544073394495412,53.846153846153925,6.382978723404255,47.51773049645389,10.846153846153848,132.8125,,,0.0199125487143422,0.015338306715850512,0.0005113493076132112,1.2982234012679308,0.5568042815126467,0.4288971227670329,-4.177401872717849,2021-09-24 14:48:28,2021-09-24 14:48:28.001,0.41491425,0.57011425,0.67566013,1.0748788999999999,0.13774386,0.25179172,-0.006936840200000001,0.56320584,0.046644992999999996,0.21941139,0.09210499400000001,0.9846898000000001,0.5881705,0.16557977,-0.011786606000000002,0.7221293000000001,0.1872417,-0.061187856,-0.24194267,0.14009838,796.1905,805.8608,807.8755,706.7399,611.2454,-0.493896484375,-0.0247802734375,0.891845703125,1.951446533203125,-3.551483154296875,-0.545806884765625,42.0,56.99999999999999,-14.999999999999993
841.6576381365114,39.46049102430436,,,,,,,26.897735716288643,26.993406032458516,0.04688425463787465,0.031958048614448634,838.4615384615386,34.21384615384618,0.04080550458715599,53.846153846153925,6.338028169014084,47.1830985915493,10.142857142857142,132.8125,,,0.020128502146847263,0.015402938755342438,0.0005539814641367113,1.3067962202904813,0.5578014840039796,0.42684656975820495,-4.173196959498962,2021-09-24 14:48:29,2021-09-24 14:48:29.001,0.5016737,0.15947382,0.41224647,1.5410754999999998,0.2062199,-0.14420418,-0.22080988,0.475437,0.016809601,0.18125641,0.13897581,0.98618513,0.5613464,0.09666985,-0.0009416097,0.9734110999999999,0.1366086,-0.3143141,-0.11309375,0.1535549,804.2491,798.60803,801.4286,906.5934,671.28204,-0.501708984375,-0.0238037109375,0.8919677734375,1.7047119140625,-3.357086181640625,0.067291259765625,38.0,54.0,-16.0
841.89852700491,39.49625245086718,,,,,,,26.86020917370996,26.956599078008317,0.046913316966329416,0.031904330880903546,838.4615384615386,34.21384615384618,0.04080550458715599,53.846153846153925,6.382978723404255,47.51773049645389,10.071428571428571,132.8125,,,0.020223434557966744,0.01540436970998692,0.0005988541388329976,1.312837521995823,0.5582473086774713,0.4252219328929627,-4.173104062409486,2021-09-24 14:48:30,2021-09-24 14:48:30.000,0.54221976,-0.07763977,-0.7532959,0.16617191,0.054216065,0.027491216000000002,-0.54023653,0.21222281,1.0389007,0.09343425,0.11792891,1.1162796999999998,0.55561006,-0.029297931,-0.054002142999999996,0.50988114,0.07830408,-0.2859824,0.009164796,0.027328057000000003,788.1319,803.8461,798.60803,577.8022,543.5531,-0.5,-0.02899169921875,0.88983154296875,1.577606201171875,-3.207550048828125,0.201873779296875,33.0,46.0,-13.0
842.0076377523186,39.50793847378521,,,,,,,26.86020917370996,26.956599078008317,0.04692111651059239,0.031900196588966145,846.1538461538463,45.61846153846145,0.053912727272727175,53.846153846153925,6.382978723404255,47.51773049645389,10.071428571428571,132.8125,,,0.02016108581398493,0.015323509384909896,0.0006561489701794051,1.3156963791753165,0.5578492163765916,0.4239954028955021,-4.1783670687806485,2021-09-24 14:48:31,2021-09-24 14:48:31.001,0.2427427,-0.20807828,-0.061810255,0.2167453,0.25247163,0.10942598,-0.19526294,0.23022507,1.0377927,0.07546203,0.31663823,1.107601,0.7591230999999999,-0.10608933,0.09949039999999999,0.8127959,-0.15635693,-0.34894553,-0.12105549,0.019768495,796.1905,803.4432400000003,805.8608,753.4798599999997,919.8901400000001,-0.4913330078125,-0.024658203125,0.89251708984375,1.816864013671875,-2.85614013671875,0.4486083984375,29.0,37.0,-8.000000000000004
842.1167484997271,39.54070161144525,,,,,,,26.86020917370996,26.95614787811745,0.04695394276611762,0.03189606336836639,846.1538461538463,45.61846153846145,0.053912727272727175,53.846153846153925,6.382978723404255,47.51773049645389,10.071428571428571,132.8125,,,0.01997684378722221,0.015211702334526362,0.0007014005786280455,1.31325497619555,0.5566139162589667,0.4238429903928149,-4.185690256914152,2021-09-24 14:48:32,2021-09-24 14:48:32.000,0.3795284,-0.10872819,-0.14296462,0.10628507,0.42098945,-0.1753566,-0.14597484,0.39719920000000003,0.9846096999999999,0.06508808,0.3283954,1.2072287,0.7800858,-0.062442396,0.03472489,0.919967,-0.17442045,-0.40171054,-0.08252307,0.09269752,817.5458,806.6667,802.6374,1002.49084,755.4945,-0.49871826171875,-0.02435302734375,0.8931884765625,2.4224853515625,-3.60382080078125,0.2392578125,26.0,33.0,-7.0
842.1713038734315,39.540929038319064,,,,,,,26.89166142005148,26.988164325134875,0.0469511711648888,0.031931343773372,846.1538461538463,45.61846153846145,0.053912727272727175,53.846153846153925,6.382978723404255,47.51773049645389,10.071428571428571,93.75,,,0.0196499566108984,0.015046244256995082,0.0007442997802144963,1.3059708639093124,0.5544491824764172,0.42454942740201773,-4.196626869960518,2021-09-24 14:48:33,2021-09-24 14:48:33.001,0.5373521,0.025043035,-0.2120435,0.27262470000000005,0.5022324,-0.30813807,-0.12611233,0.74161303,1.3245088,-0.02355692,0.280767,1.3683062,0.7428295,0.051192895,-0.04818039,0.8169473,-0.008989618000000001,-0.26967505,-0.19988126,0.1277432,794.17584,807.8755,800.6227,904.57874,719.2308,-0.4923095703125,-0.0198974609375,0.8958740234375,1.772003173828125,-3.03558349609375,0.3887939453125,27.0,31.0,-4.0
841.8743228602382,39.55907732967525,,,,,,,26.998957832363466,27.093828194250303,0.04698929074742972,0.032070057369888015,846.1538461538463,45.61846153846145,0.053912727272727175,53.846153846153925,6.338028169014084,47.88732394366197,10.142857142857142,93.75,,,0.019121777671171254,0.014825465235803685,0.0007948227266086332,1.289792756384597,0.5503926528964674,0.42672952702825423,-4.211408952749015,2021-09-24 14:48:34,2021-09-24 14:48:34.000,0.11844068,0.02036067,-0.023749067000000002,0.20941311,0.5944553000000001,-0.14723675,-0.31254756,0.5700742,1.3851438,0.18472143,0.27857697,1.4638339,0.7213748000000001,0.03693801,-0.07568513,0.7316357,-0.111952975,-0.34426588,-0.34569782,0.091618925,797.8022,793.7729,804.65204,872.3443,916.6667,-0.494140625,-0.0220947265625,0.89385986328125,2.145843505859375,-3.401947021484375,-0.725250244140625,29.0,31.0,-2.000000000000004
841.5711947626843,39.85369188535564,,,,,,,27.08741055639848,27.18265924406141,0.04735629276925767,0.032186713049318305,846.1538461538463,45.61846153846145,0.053912727272727175,53.846153846153925,6.382978723404255,48.226950354609926,10.071428571428571,93.75,,,0.018603590042369226,0.014635296395592644,0.0008307069319662041,1.2711454240155748,0.5460467297150045,0.4295706214242833,-4.224319106525933,2021-09-24 14:48:35,2021-09-24 14:48:35.003,0.30944926,-0.62730324,0.0011064446,0.34974846,0.57668984,-0.08376429,-0.6525599,0.5103727,1.301642,0.1915211,0.26609236,1.3186538,0.75093424,0.017936893,0.084107295,0.68910676,0.008395109,-0.26615325,-0.16568674,0.11255763,776.04395,802.2344400000003,797.3993,616.8865,791.3553,-0.489013671875,-0.01953125,0.8935546875,1.27105712890625,-3.46923828125,0.37384033203125,30.0,34.0,-4.0
841.5166393889798,39.8526388781057,,,,,,,27.21195103170329,27.308769585879002,0.047358111548504216,0.03233679496992683,838.4615384615386,45.61846153846145,0.0544073394495412,53.846153846153925,6.382978723404255,48.226950354609926,10.071428571428571,93.75,,,0.017991710667071063,0.014418407742319716,0.0008601617235021576,1.247829232506949,0.5407742464207089,0.4333719970113759,-4.239249573310866,2021-09-24 14:48:36,2021-09-24 14:48:36.001,0.39974356,-0.45886013,-0.26487786,0.40483865,0.48309734,-0.22952445,-0.31953856,0.4908612,1.2504951000000002,0.2636413,0.25546435,1.1131406000000001,0.6064573,-0.056571964,-0.0090830205,0.6277176999999999,0.08844067,-0.33249462,-0.22271329999999998,0.15604793,805.4579,809.0842,805.8608,651.53845,735.7509,-0.49151611328125,-0.02392578125,0.8912353515625,1.5252685546875,-3.050537109375,0.0897216796875,31.0,38.0,-7.0
841.5166393889798,39.85263887810569,,,,,,,27.304983614305925,27.402805035195872,0.0473581115485042,0.03244734843761605,838.4615384615386,45.61846153846145,0.0544073394495412,53.846153846153925,6.382978723404255,48.93617021276596,10.071428571428571,93.75,,,0.01717977039917312,0.014153486088625237,0.0008882325449590695,1.2138190048443276,0.5331774202522921,0.4392561148938939,-4.257794318548883,2021-09-24 14:48:37,2021-09-24 14:48:37.012,0.5245774999999999,-0.089690216,-0.008882918,0.90707535,0.788696,-0.2041707,-0.11760414,0.66980284,0.8365802999999999,0.17951292,0.5453312,1.0679331,0.5684699000000001,0.073402755,-0.12544960000000002,0.74383163,-0.059515952999999996,-0.31353924,-0.23281434,0.063841075,790.9524,808.2784,801.4286,636.63007,653.1502,-0.4913330078125,-0.01788330078125,0.896240234375,2.01873779296875,-3.2000732421875,0.34393310546875,29.0,42.0,-13.000000000000005
841.7348608837972,40.00458598555797,,,,,,,27.26625861451245,27.364107350625005,0.04752635045144065,0.03239293022256875,838.4615384615386,45.61846153846145,0.0544073394495412,53.846153846153925,6.382978723404255,48.226950354609926,10.071428571428571,93.75,,,0.01651556772834191,0.013940895493817364,0.0009019994822715777,1.1846848529684757,0.5266701969420303,0.4445656544205389,-4.272928636558245,2021-09-24 14:48:38,2021-09-24 14:48:38.013,0.8157615,-0.25863013,-0.0035843076,1.0791122,0.35193992,-0.28065038,0.05481907,0.5729241999999999,0.9165438,-0.052318748,0.54775554,1.0856748,0.8428258,-0.039995115,-0.015501806000000003,0.79295325,-0.10392707,-0.26846373,-0.24055651,0.09146416,815.9341,805.05493,803.8461,1014.9817,803.4432400000003,-0.48974609375,-0.02508544921875,0.89453125,1.80938720703125,-3.4991455078125,-0.665435791015625,29.0,43.0,-14.000000000000005
841.6803055100928,39.961477946508815,,,,,,,27.26625861451245,27.36366287014563,0.04747821433494338,0.03239502984210611,838.4615384615386,45.61846153846145,0.0544073394495412,53.846153846153925,6.382978723404255,48.226950354609926,10.071428571428571,93.75,,,0.01590000522621354,0.013757716720964906,0.0009097239953542234,1.1557154103910336,0.5201613918318798,0.4500774041386921,-4.286155396222225,2021-09-24 14:48:39,2021-09-24 14:48:39.000,0.52642494,-0.6335125,-0.32766613,0.5373004,0.25567368,-0.74276507,-0.23197404,0.3882522,0.92024297,-0.10857839,-0.037321005,1.1055403,0.74832875,-0.20743304,-0.04079397,0.7592603,-0.19512832,-0.42354703,-0.09100903,0.05157626,819.9634,801.4286,796.1905,1026.2638,941.2454,-0.4859619140625,-0.0245361328125,0.8935546875,1.89910888671875,-3.072967529296875,-0.37384033203125,28.000000000000004,48.0,-20.0
842.0368364030336,40.056005651617596,,,,,,,27.315739960444752,27.413122586469946,0.047570372126149035,0.032440077178963585,842.3076923076924,39.916153846153996,0.04738904109589058,53.846153846153925,6.338028169014084,48.59154929577465,10.142857142857142,93.75,,,0.015168748113121616,0.013438453698837487,0.0009012772961391686,1.1287569576873129,0.5140471000743214,0.4554099060683021,-4.309635002675972,2021-09-24 14:48:40,2021-09-24 14:48:40.001,0.36957797,-0.30203545,0.0059857294,0.41754714,0.33636013,-0.31121534,-0.24478123,0.3774852,0.90945554,-0.14525504,-0.050184585,0.95701534,0.5229231,-0.20946907,-0.063284606,0.7181319,-0.2708089,-0.37512094,-0.08720775,0.24334458,822.3810000000003,801.8315,801.02563,978.71796,919.4872,-0.4896240234375,-0.0234375,0.89324951171875,2.3626708984375,-3.297271728515625,0.411224365234375,27.0,48.0,-21.0
841.8201516793066,39.90698813685204,,,,,,,27.43837016149969,27.53531909155343,0.047405598520353184,0.03259409994731559,842.3076923076924,39.916153846153996,0.04738904109589058,53.846153846153925,6.338028169014084,49.29577464788733,10.142857142857142,93.75,,,0.013710358506167166,0.012461449823498906,0.0008425484454917982,1.100221779998115,0.5075211903166643,0.4612898958585729,-4.385115414165687,2021-09-24 14:48:41,2021-09-24 14:48:41.036,-0.021743491,-0.17804822,0.22231816,0.28484133,0.28677118,-0.3721222,-0.43978044,0.3193678,0.8858493000000001,-0.106084935,-0.061282434000000004,0.86548686,0.44460192,-0.07043085,0.00085663254,0.59500533,-0.1554752,-0.4618458,-0.31612334,0.19185881,805.4579,797.8022,811.0989,979.12085,785.7143,-0.4822998046875,-0.014892578125,0.89630126953125,1.55517578125,-3.9776611328125,0.52337646484375,27.0,52.0,-25.0
840.8619749045282,39.80228770205342,,,,,,,27.87182351532305,27.96124710491287,0.04733510241864914,0.03314672841340892,838.4615384615386,45.61846153846145,0.0544073394495412,53.846153846153925,7.092198581560284,50.35460992907801,10.071428571428571,93.75,,,0.012885840117532087,0.011890713803749292,0.000804197940403176,1.0836893671992187,0.5037318757167883,0.4648305049062878,-4.431997536124365,2021-09-24 14:48:42,2021-09-24 14:48:42.002,0.016240756999999998,-0.12813577,-0.10065622,0.40883455,0.3101836,-0.46615186,-0.38031024,0.4479654000000001,1.0125932,-0.1346628,0.09838351,0.96526754,0.51635605,-0.10253142,-0.057802815,0.5419053,-0.24328369,-0.52414787,-0.32442328,0.02529227,791.75824,799.0110000000003,804.65204,662.8205,771.2088,-0.48876953125,-0.02264404296875,0.89654541015625,1.7047119140625,-3.4393310546875,-0.366363525390625,30.0,48.0,-18.0
840.2073104200764,39.45281691773194,,,,,,,27.87182351532305,27.966466433364676,0.046956050522824914,0.03317255535587765,838.4615384615386,34.21384615384618,0.04080550458715599,53.846153846153925,7.092198581560284,50.35460992907801,10.071428571428571,93.75,,,0.01228106407695623,0.011444847866158795,0.0007696307482042662,1.073064860326369,0.501359134260307,0.4672216496846428,-4.470215618268943,2021-09-24 14:48:43,2021-09-24 14:48:43.001,0.10042259,-0.29264683,-0.15080236,0.18549652,0.22124328,-0.39106753,-0.54082966,0.13928458,0.7824423,0.0035188445000000007,-0.03444518,0.93066144,0.62299955,-0.12929386,0.08267986,0.6511479,-0.28555498,-0.50033176,-0.27275306,0.18525526,807.8755,803.0403,797.8022,870.7326,993.6264,-0.48583984375,-0.0177001953125,0.8917236328125,1.74957275390625,-3.611297607421875,0.097198486328125,32.0,44.0,-12.0
839.7074756229686,39.090732639249026,,,,,,,27.810561598766636,27.907076836549454,0.04655279817563621,0.03311934501730418,838.4615384615386,34.21384615384618,0.04080550458715599,51.92307692307702,7.042253521126762,50.0,10.142857142857142,132.8125,,,0.012070760256825198,0.011236164909571434,0.0007512767923166389,1.0742775986264514,0.5017316039469639,0.467040925537745,-4.488617692954693,2021-09-24 14:48:44,2021-09-24 14:48:44.000,0.16039039,-0.24798918,0.2254991,0.15974711,0.3854449,-0.2814796,-0.3705481,0.46037614,0.79272,0.059452599999999994,0.2052819,0.8891145,0.45628270000000004,-0.26012605,-0.061914403,0.5959981,-0.26838195,-0.5442686999999999,-0.24797706,0.2050466,797.8022,801.8315,799.0110000000003,761.1355599999997,779.2674,-0.4876708984375,-0.01971435546875,0.89794921875,1.7645263671875,-4.08233642578125,-0.142059326171875,32.0,50.0,-18.0
839.4907908992418,38.88181586187133,,,,,,,27.870855570025334,27.96973495819668,0.04631595281732881,0.033199715675464134,838.4615384615386,34.21384615384618,0.04080550458715599,46.15384615384619,7.042253521126762,50.70422535211267,10.142857142857142,179.6875,,,0.012108804570682192,0.011164126488036044,0.0007425399915368492,1.0846172858806742,0.5042084973200465,0.4648722677424835,-4.4950496333797645,2021-09-24 14:48:45,2021-09-24 14:48:45.031,0.15589863,-0.29039149999999997,0.1172202,0.30404788,0.17032693,-0.4239371,-0.22365782,0.52764726,0.8239221999999999,0.14119679,0.2395206,0.82259357,0.37876170000000003,-0.14679092,-0.057351563,0.4660917000000001,-0.32684493,-0.49762124,-0.1651473,0.09737515,828.4249,804.65204,798.20514,1013.7729,1037.9487,-0.4598388671875,0.0194091796875,0.906494140625,1.48040771484375,-5.495452880859375,-0.31402587890625,27.0,55.00000000000001,-28.00000000000001
839.1657638136513,38.69438442383303,,,,,,,27.93853075400412,28.03620923475368,0.04611053750332178,0.03329322043243922,838.4615384615386,34.21384615384618,0.04080550458715599,46.15384615384619,7.042253521126762,51.40845070422535,10.142857142857142,179.6875,,,0.012504081158461636,0.011261112335446645,0.000746048668025853,1.110377091177973,0.5101365763453811,0.4594264240485989,-4.486399874697908,2021-09-24 14:48:46,2021-09-24 14:48:46.002,0.19694851,-0.17202063,0.05857797,0.40952432,0.23051544,-0.4971218,-0.3488078,0.36400792,1.3327895,0.17888105,0.01593637,1.1012255,0.55233175,-0.03431761,0.08374495,0.5813281,-0.19577461,-0.48050395,-0.30640903,0.101437286,804.65204,793.36993,790.54944,957.7655599999999,1214.0293,-0.44488525390625,0.0242919921875,0.92041015625,2.758941650390625,-3.768310546875,0.605621337890625,22.0,68.0,-46.0
838.569880823402,38.64099883930024,,,,,,,27.75769693964499,27.85579431220025,0.04607964073472109,0.033101232913814366,838.4615384615386,34.21384615384618,0.04080550458715599,46.15384615384619,6.338028169014084,51.40845070422535,10.142857142857142,179.6875,,,0.013075894678470023,0.0114631384911721,0.0007596848244421705,1.1406906309768414,0.5168599721743851,0.4531114380520221,-4.468618740340452,2021-09-24 14:48:47,2021-09-24 14:48:47.000,0.11785283,-0.28929666,0.07317848,0.26578759999999996,0.1849106,-0.4063442,0.10082553,0.3079187,1.3325323,0.1099711,0.17622608,1.1335423,0.5931145999999999,-0.011780038999999999,-0.0033703307,0.63421077,-0.07792414,-0.4944785,-0.45320916,0.22677857,820.3663,799.0110000000003,805.4579,893.2967,650.7326,-0.44696044921875,0.021484375,0.916259765625,1.54022216796875,-3.566436767578125,0.276641845703125,19.0,82.0,-63.0
838.4615384615386,38.684568840576475,,,,,,,27.514736493877248,27.61196009271613,0.04613755916766002,0.032815740772514146,838.4615384615386,34.21384615384618,0.04080550458715599,46.15384615384619,6.338028169014084,50.70422535211267,10.923076923076923,179.6875,,,0.01391343940171012,0.01180455008309585,0.0007858189502654942,1.1786505460834298,0.5249600047402623,0.445390710999682,-4.4392702215728335,2021-09-24 14:48:48,2021-09-24 14:48:48.012,0.35220808,-0.124363534,-0.048154272000000005,0.12880346,0.061534162999999996,-0.30454183,-0.009998091,0.039334815,0.9363158000000001,0.11708318,0.18056807,0.97453535,0.5370004,-0.041594986,0.11951829,0.6133721999999999,-0.1562769,-0.38496220000000003,-0.17003347,0.29198559999999996,825.2015,796.1905,797.3993,1032.3077,1146.7399,-0.443115234375,0.02349853515625,0.9234619140625,1.772003173828125,-4.433746337890625,0.396270751953125,20.0,88.0,-68.0
838.8949079089923,38.42086936452015,,,,,,,27.568067059065218,27.664994887246102,0.04579938321510021,0.032862360707112494,838.4615384615386,34.21384615384618,0.04080550458715599,46.15384615384619,6.338028169014084,50.70422535211267,10.923076923076923,179.6875,,,0.015080858142586232,0.01233667562738436,0.0008286944771258532,1.2224410042127123,0.5339069701858853,0.4367547949929387,-4.395178694904079,2021-09-24 14:48:49,2021-09-24 14:48:49.003,0.22573526,-0.01843107,-0.135719,0.42171046,0.33818954,-0.39026713,-0.116463475,0.47815758,0.5540191999999999,0.031566747,0.21377070000000006,0.46170506,0.47024116,-0.06949711,0.0692963,0.5046875,-0.19538003,-0.33505303,-0.18626362,0.14894935,817.9487,807.8755,796.1905,993.22345,964.21246,-0.44049072265625,0.018310546875,0.9208984375,1.428070068359375,-3.401947021484375,0.186920166015625,28.000000000000004,92.0,-64.0
838.6782231852653,39.65887169730146,,,,,,,29.98173937513809,30.06450782155278,0.04728735121639225,0.03574879917743503,838.4615384615386,34.21384615384618,0.04080550458715599,46.15384615384619,6.338028169014084,51.40845070422535,10.923076923076923,195.3125,,,0.016935609921241778,0.013212152143042558,0.0009035300783417873,1.2818206858267198,0.5454075741341909,0.4254944394054823,-4.3266182560004784,2021-09-24 14:48:50,2021-09-24 14:48:50.010,0.080900766,-0.49972079999999997,-0.3094557,0.5064109,0.018728305,-0.6174784000000001,-0.23543057,0.40559757,0.5080945,0.058769137,0.10203066,0.92393553,0.4443456,-0.15619117,-0.05305678,0.526039,-0.018933851,-0.44363776,-0.28246728,0.072639145,776.04395,804.2491,796.99634,590.696,655.16486,-0.4378662109375,0.02130126953125,0.9195556640625,1.951446533203125,-3.551483154296875,0.538330078125,32.0,92.0,-60.0
839.815817984832,38.622677130131066,,,,,,,27.045547958186297,27.141470347062867,0.0459894613831013,0.03220414212140354,838.4615384615386,34.21384615384618,0.04080550458715599,46.15384615384619,5.63380281690141,50.70422535211267,10.923076923076923,187.5,,,0.018625634417024074,0.014001170372312624,0.0009755544594021225,1.3302912486413527,0.5542954373872763,0.4166722422276978,-4.268614354838668,2021-09-24 14:48:51,2021-09-24 14:48:51.002,0.7800555,-0.8909568000000001,-0.055802147999999996,1.1341683,0.8004654,-0.86484814,-0.09250013,1.0685136,0.9192815000000001,0.01762032,0.09144461,1.2335205,0.35137203,-0.050981954,0.07127334,0.49303365,0.03153076,-0.4082845,-0.25848360000000004,0.046541695,787.7289400000003,805.05493,803.0403,641.0622599999998,722.8571,-0.43408203125,0.01849365234375,0.92449951171875,1.577606201171875,-4.02252197265625,-0.037384033203125,39.0,88.0,-49.0
839.4366197183099,38.213704023969015,,,,,,,27.13848825944775,27.23386316808724,0.045523036672849,0.03232940715471125,838.4615384615386,34.21384615384618,0.04080550458715599,46.15384615384619,5.63380281690141,51.40845070422535,10.923076923076923,179.6875,,,0.019968929425725705,0.014393465361250897,0.0010311064248919738,1.3873607866167306,0.5641976278693074,0.4066697237747224,-4.240980969753579,2021-09-24 14:48:52,2021-09-24 14:48:52.020,0.7256045999999999,-0.28808102,0.5183721,0.7901416,0.7710899999999999,-0.07776004,0.19568947,0.6733321999999999,1.0042806,0.087595016,0.33797659999999996,1.0103891,0.50276804,0.0035538338,0.15479195,0.55519736,0.056085102000000005,-0.47914979999999996,-0.10347229999999999,0.21565397,789.7436,802.2344400000003,798.20514,645.4945,498.02197,-0.4339599609375,0.0174560546875,0.925048828125,1.83929443359375,-3.461761474609375,-0.097198486328125,38.0,82.0,-44.0
839.3824485373781,38.14361118689165,,,,,,,26.48105701177321,26.570895389314533,0.04544246934559664,0.03154826153193504,838.4615384615386,34.21384615384618,0.04080550458715599,46.15384615384619,4.929577464788731,51.40845070422535,10.923076923076923,179.6875,,,0.021081465859824976,0.014780704744062304,0.0010846334386299657,1.4262828616675949,0.5705897006833142,0.40005367519889207,-4.214432682321287,2021-09-24 14:48:53,2021-09-24 14:48:53.001,0.23163727,-0.20788369,0.37104282,0.20937441,0.27286822,-0.048231172999999995,0.1704292,0.061931192999999995,0.7340638,0.21105573,0.28290892,0.58819175,0.3884531,0.031532902,0.107747816,0.43675342,0.019672893,-0.4012071,-0.19154029999999997,0.11924302,814.3223,803.0403,804.65204,776.8498,759.92676,-0.43572998046875,0.02435302734375,0.92755126953125,2.3028564453125,-3.775787353515625,-0.85235595703125,33.0,78.0,-45.0
839.8699891657639,38.276913322625596,,,,,,,26.409647289836375,26.495655263575983,0.04557480778738831,0.03144492317920404,838.4615384615386,34.21384615384618,0.04080550458715599,46.15384615384619,4.929577464788731,50.70422535211267,10.923076923076923,187.5,,,0.0218959686860635,0.015048533454174331,0.0011318510611461011,1.4550234248899352,0.5750542487684369,0.3952199249382784,-4.196474737440676,2021-09-24 14:48:54,2021-09-24 14:48:54.002,0.52021223,0.124740355,0.6299094,0.03425763,0.18001753,-0.026801163,0.40938753,-0.017981654,0.43495956,0.16453432,0.29305714,0.48901874,0.42645365,-0.04599058599999999,0.11892889400000001,0.38763309999999995,0.0578285,-0.2151605,-0.18198119,0.08070382,783.69965,807.8755,800.2198,610.4396,419.45055999999994,-0.43548583984375,0.02423095703125,0.92535400390625,1.9140625,-3.36456298828125,0.336456298828125,31.0,73.0,-42.0
840.6983087834151,38.52235858320924,,,,,,,26.303707686158706,26.395333583971855,0.0458218580681522,0.03128792744239384,838.4615384615386,34.21384615384618,0.04080550458715599,53.846153846153925,4.964539007092199,50.35460992907801,11.75,187.5,,,0.022573104542258873,0.015333452678643555,0.0011871813648373071,1.4721475335883556,0.5774097172300857,0.3922227250027388,-4.1777183878016455,2021-09-24 14:48:55,2021-09-24 14:48:55.022,0.7461985,0.12832293,0.6480854,0.22704193,0.39265612,0.13326675,0.02259294,0.13604431,0.33748993,0.074965514,0.058170766,0.4093363,0.42003232,0.015508649,0.0917069,0.29223865,-0.05191152,-0.24371304,-0.24932706,0.09833268,811.0989,813.91943,803.4432400000003,865.09155,739.7802,-0.43597412109375,0.02276611328125,0.928955078125,1.435546875,-3.84307861328125,0.418701171875,24.0,65.0,-41.0
840.0866738894908,41.05118189467174,,,,,,,32.65498013410598,32.751222547729306,0.04886541254679136,0.0388709655194478,838.4615384615386,34.21384615384618,0.04080550458715599,53.846153846153925,5.63380281690141,50.70422535211267,11.833333333333336,250.0,,,0.023010647004995288,0.015667705432486856,0.001236741082954382,1.4686673236326555,0.5764898682553214,0.3925258354828855,-4.1561536639369265,2021-09-24 14:48:56,2021-09-24 14:48:56.001,-0.07109364,-0.2224313,-0.13422373,0.33883896,0.21212023,-0.06577115,-0.053567458,0.30391312,0.4496484000000001,-0.0433939,0.11373359,0.7234838,0.28487763,-0.09988354,-0.017108114,0.48659244,-0.023472626,-0.35789,-0.21639589999999997,0.13056988,813.91943,802.2344400000003,796.99634,1006.9231,1031.9048,-0.43267822265625,0.01708984375,0.9227294921875,1.6448974609375,-3.5589599609375,0.31402587890625,25.0,56.99999999999999,-31.999999999999996
841.5711947626843,39.34135161744297,,,,,,,26.295672339190645,26.384329922783998,0.046747502602601416,0.031245927264188025,838.4615384615386,34.21384615384618,0.04080550458715599,53.846153846153925,4.964539007092199,49.64539007092198,11.75,195.3125,,,0.023316581032462414,0.016094433254017947,0.0012890632146441295,1.4487357625122632,0.5728878779608764,0.3954398674934533,-4.129281827400709,2021-09-24 14:48:57,2021-09-24 14:48:57.001,-0.22487892,-0.3954357,-0.17133373,0.07344776,0.14515059,-0.5828689,0.011552801000000001,0.2697616,0.51524913,-0.22420488,-0.009683721999999999,0.3812151,0.36751089,-0.16637363,0.07159576599999999,0.35656312,-0.26951203,-0.46868867,-0.2701624,0.14991063,797.3993,796.99634,803.4432400000003,689.41394,483.51648,-0.43023681640625,0.021728515625,0.9278564453125,1.83929443359375,-4.044952392578125,-0.6280517578125,26.0,42.0,-16.0
841.6576381365112,39.17229746843905,,,,,,,26.51273292861361,26.604492485317436,0.04654184277964761,0.03150061465290644,838.4615384615386,34.21384615384618,0.04080550458715599,53.846153846153925,5.63380281690141,49.29577464788733,11.833333333333336,195.3125,,,0.023478691031839343,0.016759572559426603,0.0013569917758933367,1.400912281538678,0.5644559896217509,0.4029202949108179,-4.0887856878675874,2021-09-24 14:48:58,2021-09-24 14:48:58.030,0.3270484,-0.48762903,-0.21415454,0.46546376,0.22519584,-0.64069146,-0.19748634,0.35509676,0.5942759,-0.11331393,-0.04008349,0.7756828,0.50434554,-0.22910461,-0.047960974,0.4700166,-0.19821937,-0.4460824000000001,-0.32581365,0.24299838,807.0696,803.8461,807.0696,867.1062,1076.63,-0.429931640625,0.02191162109375,0.9302978515625,1.86920166015625,-3.222503662109375,-0.0299072265625,26.0,30.0,-4.0
842.3895253682489,38.8509628323156,,,,,,,26.575463931573427,26.669462677073465,0.04611995004963052,0.031547714128990406,846.1538461538463,34.21384615384618,0.04043454545454548,53.846153846153925,5.673758865248227,49.64539007092198,11.75,195.3125,,,0.023319717784266253,0.017324542338458832,0.001405359607334967,1.3460510141441775,0.5545761872275783,0.4120023545914262,-4.055631150505659,2021-09-24 14:48:59,2021-09-24 14:48:59.007,0.19145766,-0.59454995,-0.2908673,0.40063414,0.057407822000000004,-0.5140092,-0.13125509,0.20817259,0.47893468,-0.10695783,-0.062150113,0.732694,0.40660405,-0.086464815,0.097216964,0.36200675,-0.08344447599999999,-0.41478103,-0.20167358,0.14232929,822.3810000000003,805.4579,801.8315,896.1172,867.50916,-0.42724609375,0.017578125,0.92449951171875,1.577606201171875,-3.81317138671875,-0.13458251953125,31.0,30.0,1.0
842.6623022367703,38.740473999443736,,,,,,,26.503799628715253,26.59873754904273,0.04597390187814345,0.031452456765139886,846.1538461538463,34.21384615384618,0.04043454545454548,53.846153846153925,5.673758865248227,48.93617021276596,11.75,195.3125,,,0.023043109006522226,0.01801529965369878,0.0014547623050773632,1.2790855244970163,0.5420228245343378,0.4237580788411167,-4.016533901354012,2021-09-24 14:49:00,2021-09-24 14:49:00.002,0.13490275,0.016890906,0.61218184,0.4580258,0.27363786,-0.13419405,0.30740872,-0.15006894,0.58628166,-0.04838949,0.26280546,0.5828748,0.33844352,-0.014053719,-0.06567766,0.505205,-0.012994275,-0.26845488,-0.15547007,0.14964281,797.8022,799.41394,791.75824,896.5201400000003,790.14655,-0.41961669921875,0.01678466796875,0.9248046875,1.667327880859375,-3.252410888671875,0.2392578125,29.0,29.0,0.0
843.0441898527005,38.887517129631725,,,,,,,26.69447690460485,26.786695900004307,0.046127495566307485,0.031664386310839766,846.1538461538463,34.21384615384618,0.04043454545454548,53.846153846153925,5.673758865248227,49.64539007092198,10.846153846153848,164.0625,,,0.02253135690484517,0.019045160158284957,0.001515326446768343,1.1830489592939266,0.5228682523101982,0.44196670662071263,-3.9609422696206673,2021-09-24 14:49:01,2021-09-24 14:49:01.001,0.32076806,0.1782899,0.7079572,0.54325944,0.5732385999999999,-0.0088175805,0.36577117,0.23396833,0.59286445,-0.15196574,0.34209573,0.6031747,0.3780314,-0.14818048,0.11543400599999999,0.71930796,0.108214304,-0.04704839,-0.16688134,0.31385106,793.36993,802.6374,807.8755,668.8644400000002,805.4579,-0.42608642578125,0.0194091796875,0.92657470703125,2.1832275390625,-3.57391357421875,-0.0,27.0,30.0,-3.0
843.3169667212221,38.88135003863013,,,,,,,26.73403015922819,26.8272466374618,0.04610526240186895,0.03170104624263505,846.1538461538463,34.21384615384618,0.04043454545454548,53.846153846153925,5.673758865248227,50.35460992907801,10.846153846153848,164.0625,,,0.02198598855534304,0.01997513271620493,0.0015601860012650196,1.1006679588920472,0.5051775769860044,0.4589736376940831,-3.91326714323648,2021-09-24 14:49:02,2021-09-24 14:49:02.001,0.06504511,-0.22684044,0.49399376,0.06677345,0.3598295,-0.38824385,0.27764598,0.4996137,0.21400383,-0.10764891,0.15516128,0.21873061,0.44293624,0.10029532,0.19204973,0.65333825,0.10104662,0.03530806,-0.020726917,0.32953453,793.36993,801.4286,799.0110000000003,634.21246,630.18317,-0.42144775390625,0.02484130859375,0.92926025390625,1.891632080078125,-3.170166015625,0.590667724609375,31.0,32.0,-1.0
843.5536294691225,38.65078725624944,,,,,,,26.639059947318536,26.727245747473283,0.0458190041581277,0.0315795688818071,846.1538461538463,34.21384615384618,0.04043454545454548,46.15384615384619,5.63380281690141,50.70422535211267,10.923076923076923,132.8125,,,0.021332858763513325,0.02097324783802209,0.00159945302348928,1.017146172508356,0.4858805797194374,0.4776900241596749,-3.864507565850133,2021-09-24 14:49:03,2021-09-24 14:49:03.002,0.068844534,-0.034559287,0.6546270000000001,-0.0019637920000000002,-0.022165683999999998,-0.22234555,0.49852526,0.6603045999999999,0.369319,-0.04604409,0.5141207999999999,0.72184914,0.52208996,0.15042289,0.26826927,0.47746882,0.11972005,-0.045189984,0.019891044,0.30015959999999997,793.7729,802.2344400000003,806.6667,726.8865,728.0952,-0.42254638671875,0.02496337890625,0.93170166015625,1.697235107421875,-3.835601806640625,-0.35888671875,33.0,28.000000000000004,4.9999999999999964
844.6808510638298,38.11841333279969,,,,,,,26.662792054382624,26.754892962807823,0.04512759261061928,0.031565522079495804,846.1538461538463,34.21384615384618,0.04043454545454548,46.15384615384619,5.673758865248227,50.35460992907801,10.846153846153848,132.8125,,,0.020787018718430327,0.022693845554188626,0.0016690202822804135,0.9159760371504618,0.4604002628878185,0.5026335233835286,-3.7856615122155657,2021-09-24 14:49:04,2021-09-24 14:49:04.008,0.30622542,-0.02105891,0.32714498,0.45119774,0.14007188,-0.17415692,0.3004578,0.5272566,0.5282866999999999,-0.19483083,0.5073392,0.7524468000000001,0.5152174,-0.037094813,0.1293361,0.34796408,0.06797188,-0.42689332,-0.18422788,0.25195029999999996,820.3663,804.65204,818.3516,929.5604,990.0,-0.4207763671875,0.0181884765625,0.92340087890625,2.213134765625,-3.656158447265625,-0.276641845703125,42.0,23.0,19.0
845.3355155482816,38.40327595541609,,,,,,,26.718215883866684,26.809559312883746,0.04542962557359,0.031606640668039775,846.1538461538463,34.21384615384618,0.04043454545454548,46.15384615384619,5.673758865248227,50.35460992907801,10.846153846153848,132.8125,,,0.020446880592769102,0.024323909678366357,0.0017320501699317214,0.8406083094016144,0.4396910037932271,0.5230628806253658,-3.716295475003395,2021-09-24 14:49:05,2021-09-24 14:49:05.023,0.44254616,-0.010511788999999999,0.7148936,0.43905779999999994,0.21267655,-0.10773257,0.2883902,0.29253903,0.45941153,-0.118080005,0.0936438,0.541416,0.40151279999999995,0.009898229,0.14330079999999998,0.24446908,-0.07417196,-0.44489333,-0.14674237,0.16177326,824.7985,806.6667,805.4579,1025.0549,900.14655,-0.419189453125,0.02081298828125,0.9384765625,2.504730224609375,-3.72344970703125,0.52337646484375,48.0,18.0,30.0
845.7174031642118,38.60164645122079,,,,,,,26.749835085326012,26.843109954720358,0.04564367045870707,0.03162975597432755,846.1538461538463,34.21384615384618,0.04043454545454548,53.84615384615381,5.673758865248227,50.35460992907801,10.846153846153848,132.8125,,,0.020132297265239088,0.026084845746465884,0.0017949101342082114,0.7718005105691192,0.41931756602982856,0.5432978603766759,-3.646400756020919,2021-09-24 14:49:06,2021-09-24 14:49:06.023,0.7277117,-0.15066567,0.7030906,0.74307805,0.27147058,-0.2992627,0.18718347,0.4713089,0.7096982,-0.08899850000000001,0.13906184,0.9802439000000001,0.39836037,-0.082488045,0.092029504,0.39545214,-0.057351828,-0.4022533,-0.1795223,0.19227384,826.8132,806.26373,805.05493,994.0293,890.07324,-0.41351318359375,0.01910400390625,0.9329833984375,1.846771240234375,-2.99072265625,-0.351409912109375,51.0,15.0,36.0
846.1538461538463,38.54445958932901,,,,,,,26.837955405091066,26.931353787024356,0.045552543151025186,0.03171758366056216,846.1538461538463,34.21384615384618,0.04043454545454548,53.84615384615381,5.7142857142857135,50.71428571428571,10.0,132.8125,,,0.019681585512311854,0.028237974255029625,0.0018595222732751024,0.6969899942027978,0.3953786350711113,0.5672658694668018,-3.5670876021088813,2021-09-24 14:49:07,2021-09-24 14:49:07.000,0.71011734,-0.560359,-0.04322571,0.7691581999999999,0.25588292,-0.27410254,-0.36392748,0.53150904,0.73593676,-0.041005537,-0.0043954463000000004,0.96430874,0.34984347,-0.027794236,0.013841255,0.4995407,-0.079933755,-0.37743586,-0.27055648,0.15767595,785.3113400000003,796.5934,796.99634,697.47253,794.9817,-0.4176025390625,0.0203857421875,0.925537109375,2.10845947265625,-3.4991455078125,0.157012939453125,51.0,19.0,32.0
846.5384615384614,38.27097228186029,,,,,,,26.77443352808139,26.87034884525271,0.0452087814324565,0.03162813592594803,846.1538461538463,34.21384615384618,0.04043454545454548,53.84615384615381,5.7142857142857135,50.0,10.0,132.8125,,,0.01980482988413814,0.03058540671536169,0.0019449814139231012,0.6475254708380601,0.3784226116925433,0.5844134767436556,-3.487232288505772,2021-09-24 14:49:08,2021-09-24 14:49:08.000,-0.18940744,-0.53898966,0.18538225,0.26863638,0.07382004,-0.44410730000000004,0.07233400000000001,0.20936863,0.38195825,-0.057867363,0.39878020000000003,0.42785928,0.300372,-0.15710056,-0.0905806,0.31979132,-0.116087705,-0.46125463,-0.28619042,0.059541736,821.1722,807.0696,805.4579,980.7326,851.79486,-0.41778564453125,0.022216796875,0.934326171875,1.9140625,-3.170166015625,0.171966552734375,48.0,25.0,23.0
847.0879120879122,38.37253517260295,,,,,,,26.988220658625774,27.07620233045085,0.04529935396908437,0.031859999739702216,846.1538461538463,34.21384615384618,0.04043454545454548,53.84615384615381,5.7142857142857135,50.0,10.0,132.8125,,,0.019852591017538498,0.03268867758439456,0.002012130641992899,0.6073231615529178,0.3639111639729565,0.5992051464700279,-3.4207265122794883,2021-09-24 14:49:09,2021-09-24 14:49:09.016,-0.24091749,-0.42658755,0.3721844,0.32965836,0.08259233,-0.19928289999999999,0.22293398,0.5828666,0.50651526,0.052857053,0.31461382,0.42622355,0.33363584,-0.027900016,-0.03550775,0.41238528,-0.057120826,-0.47613102,-0.08760289,0.21483827,812.71063,804.2491,805.05493,958.5714,788.5348,-0.4100341796875,0.01385498046875,0.93267822265625,1.973876953125,-3.87298583984375,-0.19439697265625,47.0,28.000000000000004,19.0
847.8021978021977,38.276096547137584,,,,,,,26.861737381760317,26.942347485556656,0.045147437275301634,0.03168396761814892,850.0,39.91615384615382,0.04696018099547508,53.84615384615381,5.7142857142857135,49.28571428571429,10.0,132.8125,,,0.02068078437000184,0.03620989493423216,0.002151156821646678,0.5711362711094367,0.3502733947147102,0.6132921553630298,-3.3184228567765364,2021-09-24 14:49:10,2021-09-24 14:49:10.001,-0.060315154,-0.45115045,0.09447751,0.23390327,0.05195334,-0.33481127,-0.040723268,0.38051754,0.46628156,-0.11865055,0.12381095,0.31957579999999997,0.22767709,-0.1125134,0.005802646,0.40182640000000003,-0.22773215,-0.5022544,-0.17555423,0.16988273,791.3553,801.4286,799.41394,746.2271,610.84247,-0.4095458984375,0.01763916015625,0.933349609375,1.86920166015625,-4.179534912109375,-0.112152099609375,45.0,36.0,9.0
848.8270594653574,37.68429849424351,,,,,,,27.024925097036306,27.110973709770928,0.04439573182077791,0.03183796368845526,853.8461538461537,34.21384615384618,0.0400702702702703,46.15384615384608,5.673758865248227,49.64539007092198,9.4,132.8125,,,0.022131514901281284,0.04002920004021558,0.002323735329816496,0.552884266461651,0.3432070027450748,0.6207574054178303,-3.218146090183944,2021-09-24 14:49:11,2021-09-24 14:49:11.002,0.2886526,-0.41191292,-0.0044546095,0.3008989,0.2438372000000001,-0.48232359999999996,-0.21271223,0.005433586,0.34342384,0.026710821000000003,0.21114402,0.2877941,0.16902134,-0.01424048,-0.019912815,0.47676766,-0.31595138,-0.53936553,-0.19946529,0.12936543,814.3223,809.4872,807.8755,958.9743699999999,897.326,-0.40594482421875,0.0157470703125,0.93609619140625,1.592559814453125,-4.35150146484375,0.231781005859375,47.0,38.0,9.0
850.1098901098903,35.682508652940264,,,,,,,27.11411391638478,27.210759106470547,0.041973995442315976,0.03189483410536472,853.8461538461537,34.21384615384618,0.0400702702702703,46.15384615384608,5.7142857142857135,50.0,9.333333333333334,117.1875,,,0.02346835234172679,0.0431959461529593,0.00246338446277758,0.5432998795448079,0.33949282454856144,0.6248718936455466,-3.1420086271871,2021-09-24 14:49:12,2021-09-24 14:49:12.000,0.4403973,-0.41161309999999995,0.21559478,0.4559477,0.35045895,-0.19281153,-0.17008385,0.13398238,0.28222966,0.35190848,0.23425712,0.2877941,0.27051577,0.03070499,0.02555571,0.4905197,-0.23473167,-0.4021573,-0.25291023,0.14229876,809.0842,802.6374,811.5018299999997,859.0476,855.0183,-0.08551025390625,-0.04400634765625,1.01263427734375,5.719757080078125,-37.152252197265625,-16.37420654296875,42.0,46.0,-4.0
850.4945054945056,35.174549265032866,,,,,,,27.13765388370361,27.233762465429386,0.041357761911208615,0.03190808842195269,853.8461538461537,34.21384615384618,0.0400702702702703,46.15384615384608,5.7142857142857135,50.0,9.333333333333334,117.1875,,,0.02441388824314513,0.04502444737145976,0.002534064101533581,0.542236266482655,0.3392118136873901,0.6255793547114961,-3.1005496618108825,2021-09-24 14:49:13,2021-09-24 14:49:13.024,0.69546425,0.26959684,0.6181121,0.40162665,0.6801972,0.06289679,0.20067136,0.24315332,0.51610166,0.6932311,0.46949179999999996,0.49156252,0.49921513,0.45389265,0.33926284,0.5491536,0.31954437,0.31182787,0.28718394,0.33165985,737.3626,796.1905,776.04395,575.38464,670.07324,-0.13946533203125,-0.0806884765625,1.01177978515625,5.1141357421875,27.058563232421875,-16.14990234375,42.0,56.00000000000001,-14.000000000000007
850.8791208791209,34.740727554621024,,,,,,,27.01974896453849,27.1169579925612,0.04082921616260511,0.03175509693623922,853.8461538461537,34.21384615384618,0.0400702702702703,46.15384615384608,5.7142857142857135,49.28571428571429,9.333333333333334,117.1875,,,0.0254763289288463,0.0463759843009273,0.0025996116391463976,0.5493431419920697,0.3421849599415986,0.6228983922521387,-3.0709735334619417,2021-09-24 14:49:14,2021-09-24 14:49:14.000,0.63520056,0.30058146,0.5983874,0.43963215,0.47573236,-0.011483637,0.42238596,0.07631514,0.30581632,0.46522042,0.6521161999999999,0.32050088,0.66472965,0.5784382,0.5564151999999999,0.665933,0.4161212,0.571769,0.57823306,0.38762528,824.3956,795.78754,807.47253,869.5238,777.25275,-0.5501708984375,-0.04736328125,0.882568359375,4.029998779296875,15.843353271484375,-11.028289794921877,46.0,57.99999999999999,-11.999999999999993
851.1898173768677,34.73239520109379,,,,,,,26.99067799067604,27.08894724359848,0.04080452384654864,0.031709352531793515,853.8461538461537,34.21384615384618,0.0400702702702703,46.15384615384608,5.755395683453237,48.92086330935252,8.6875,117.1875,,,0.02663862897790676,0.047350990612840295,0.002659934335961803,0.5625780714011734,0.34753795179784364,0.6177595065734707,-3.05016753849518,2021-09-24 14:49:15,2021-09-24 14:49:15.000,0.63520056,0.11518779400000001,0.6596129,1.1043979,0.47573236,0.032319576,0.66462106,1.0400465,0.30581632,0.37900326,0.77577317,1.2588999,0.66472965,0.40265164,0.5946688,1.2346255,0.4161212,0.40745990000000004,0.41910294,0.8717341000000001,750.2564,802.6374,794.57874,610.0366,593.91943,-0.6424560546875,0.00494384765625,0.8143310546875,18.71444702148437,-6.519775390625,-16.86767578125,50.0,61.0,-11.0
850.3296703296704,35.2127805803363,,,,,,,27.395258559880872,27.491588644425736,0.041410739633117116,0.03221722058605789,853.8461538461537,34.21384615384618,0.0400702702702703,46.15384615384608,6.428571428571428,49.28571428571429,8.75,117.1875,,,0.029113010375372332,0.049703985960779073,0.002822654355362463,0.5857278810263853,0.35660380867355324,0.608821639237435,-3.0016701486773454,2021-09-24 14:49:16,2021-09-24 14:49:16.000,0.5181242,0.28521326,0.94868195,0.8563619,0.08086713,-0.0105817355,0.59008056,0.61434305,0.7391251999999999,0.5219182,0.6308457,1.2404746000000002,0.7709879,0.2049779,0.5156357,1.1493455,0.3323868,0.23579879,0.289542,0.7724108000000001,893.69965,804.2491,788.1319,1015.38464,903.7729,-0.62982177734375,-0.00567626953125,0.792724609375,-2.459869384765625,-3.955230712890625,5.704803466796875,56.00000000000001,63.0,-6.999999999999992
850.1648351648352,35.25019410148151,,,,,,,27.019748964538497,27.11604792064,0.04146277597408153,0.03178177671780525,853.8461538461537,34.21384615384618,0.0400702702702703,46.15384615384608,5.7142857142857135,49.28571428571429,9.333333333333334,117.1875,,,0.031623145526846745,0.05199187301135694,0.002995181546725365,0.6082324735625333,0.36512033797217214,0.6002973432733587,-2.9566678608581256,2021-09-24 14:49:17,2021-09-24 14:49:17.001,0.3230915,0.6217175,1.2247156000000001,0.819313,0.020866603,0.4468811,0.73779935,0.5497809,0.638925,0.38513374,0.36928713,0.6319802,0.650203,0.31674650000000004,0.4260952,0.79463154,0.26522645,0.3528322,-0.004417671,0.46582443,758.71796,804.2491,790.9524,660.40295,686.99634,-0.6434326171875,0.04547119140625,0.78289794921875,1.697235107421875,-3.865509033203125,1.712188720703125,56.00000000000001,59.0,-2.9999999999999933
850.6593406593408,34.916731884556896,,,,,,,26.948758405234003,27.03504292640829,0.0410466684084056,0.031679847757089444,853.8461538461537,34.21384615384618,0.0400702702702703,46.15384615384608,5.7142857142857135,49.28571428571429,9.333333333333334,117.1875,,,0.03395205099622547,0.05368271741455328,0.0031487529526108317,0.6324577560788892,0.3739891390676698,0.5913266703950745,-2.92466416512321,2021-09-24 14:49:18,2021-09-24 14:49:18.022,0.2326929,0.26431638,-0.35240570000000004,-0.07908532,0.26793563,0.19826475,-0.39277506,0.4019432,0.36196092,0.16805339,-0.053345162,0.35213587,0.5558128000000001,0.33832845,0.47553238,0.6685017,0.16876823,0.25367460000000003,0.061851817999999996,0.31457877,743.8095,799.41394,799.41394,610.84247,568.9377400000002,-0.64892578125,0.03466796875,0.78460693359375,1.846771240234375,-2.0037841796875,-0.052337646484375,51.0,59.0,-8.0
852.1859435528502,33.05037162442393,,,,,,,26.927058154436665,27.01814600483436,0.0387830518379986,0.031597632369028544,853.8461538461537,34.21384615384601,0.040070270270270096,46.15384615384608,5.755395683453237,48.92086330935252,9.266666666666667,93.75,,,0.03486599216958773,0.05263302894109412,0.003169353054415339,0.662435601200324,0.3845441422176665,0.5805004162229174,-2.9444114296651427,2021-09-24 14:49:19,2021-09-24 14:49:19.002,0.4533742,-0.7285499,0.044685144,0.5948,0.26691002,-0.29805377,-0.06479226,0.52024525,0.6459314,0.31758425,0.2319196,0.7053742,0.7527393,0.18995193,0.31069914,0.76000947,0.025055788,-0.12400026,0.00987071,0.25233087,770.40295,807.0696,804.2491,676.1172,688.20514,-0.65228271484375,0.04559326171875,0.783935546875,1.74957275390625,-3.058013916015625,1.7645263671875,48.0,57.99999999999999,-9.999999999999991
852.8500276701717,32.60723447808489,,,,,,,26.927058154436665,27.018146004834357,0.038233257220102124,0.03157302841156775,853.8461538461537,34.21384615384601,0.040070270270270096,46.15384615384608,5.755395683453237,48.92086330935252,9.266666666666667,93.75,,,0.034986870365289226,0.0511034279784998,0.003149280127773383,0.6846286393939929,0.3920555314639719,0.5726542959275038,-2.9739037002945103,2021-09-24 14:49:20,2021-09-24 14:49:20.016,0.49277171,0.05263132,0.45551205,0.61408186,0.45061588,-0.112984166,0.2776352,0.63229835,0.6459314,0.3502422,0.45187825,0.76509064,0.7198035,0.13591604,0.2508042,0.72565347,0.07396483,-0.11606399,0.030070352999999998,0.19161168,803.4432400000003,809.8901400000003,810.696,765.56775,834.4689,-0.64910888671875,0.03875732421875,0.79827880859375,-8.934783935546875,-5.8917236328125,12.030181884765625,46.0,51.0,-5.0
852.7472527472528,32.394426340364035,,,,,,,27.13765388370361,27.23557471204158,0.03798830923934442,0.03182379514712666,853.8461538461537,34.21384615384609,0.0400702702702702,46.15384615384608,6.428571428571428,48.57142857142857,9.333333333333334,93.75,,,0.034973173293468766,0.049667504738640914,0.003130522633407021,0.7041459698348794,0.3984584126488876,0.5658747329652759,-3.0024043879147837,2021-09-24 14:49:21,2021-09-24 14:49:21.000,0.65091866,0.31643740000000004,0.73469406,0.46027609999999997,0.46167603,0.14615266,0.39071828,0.39527845,0.40586662,0.16157326,0.7022616,0.8361860999999999,0.54538006,0.21499649,0.37998912,0.5908220999999999,0.39500296,-0.10123472,0.22374338,0.34697613,797.8022,807.8755,809.8901400000003,774.0293,906.1905,-0.63330078125,0.0321044921875,0.809326171875,-7.07305908203125,-2.654266357421875,16.9873046875,47.0,51.0,-4.0
852.8571428571429,32.34539209667925,,,,,,,27.13765388370361,27.23557471204158,0.03792592038136595,0.031819694671009265,853.8461538461537,34.21384615384609,0.0400702702702702,46.15384615384608,6.428571428571428,48.57142857142857,9.333333333333334,93.75,,,0.03540356424758996,0.0489097778141379,0.0031645923324789176,0.7238545303175795,0.4047142229953541,0.5591098847137038,-3.017777947190364,2021-09-24 14:49:22,2021-09-24 14:49:22.000,0.5043497,0.19034268,0.616002,0.5530702,0.23270014,-0.008652805,0.09271696,0.47728859999999995,0.8277439,0.2007139,0.63228655,0.86431426,0.76276594,0.19449396,0.32710314,0.6487982,0.52279776,0.0076141690000000005,0.12720408,0.41648778,803.8461,797.8022,790.9524,1001.685,918.6813400000001,-0.66217041015625,0.07763671875,0.76934814453125,2.743988037109375,-0.04486083984375,1.95892333984375,46.0,53.0,-7.0
852.9670329670329,32.40118386079501,,,,,,,27.25504875278539,27.35356429294148,0.03798644333074396,0.031953226442971785,853.8461538461537,34.21384615384618,0.0400702702702703,46.15384615384608,6.428571428571428,49.28571428571429,9.333333333333334,93.75,,,0.035837546503014205,0.04873363958978822,0.0032134399231041697,0.7353759498505361,0.40824399589650734,0.5551500507726452,-3.0213857360221352,2021-09-24 14:49:23,2021-09-24 14:49:23.000,0.72202384,0.20809236,0.81603545,0.6503800999999999,0.4191519,-0.12115653,0.3060292,0.59025407,0.8480565000000001,0.16996716,0.50547695,0.8138297,0.7946276999999999,0.42878452,0.29891288,0.6537774000000001,0.43057355,0.30236056,0.3353983,0.29730126,735.7509,744.21246,799.41394,523.8095,594.3223,-0.7470703125,0.094482421875,0.68084716796875,-2.94586181640625,9.091796875,8.620758056640625,50.0,53.0,-3.0
852.9053680132815,32.54966496266299,,,,,,,27.32225183805502,27.421729715337058,0.03816327834643915,0.032034329789362465,853.8461538461537,34.21384615384618,0.0400702702702703,46.15384615384608,6.474820143884893,49.64028776978417,9.266666666666667,85.9375,,,0.0352143541059252,0.04733388311516823,0.0031817036522919233,0.7439565864529863,0.41075910874513866,0.5521277937783218,-3.0505288950072527,2021-09-24 14:49:24,2021-09-24 14:49:24.001,0.87645185,0.48352890000000004,1.1232643999999998,0.789511,0.57782894,0.16379096,0.5832329,0.6981665,0.75566685,0.089842595,0.45896393,0.79800165,0.73453164,0.7363276999999999,0.38052228,0.7176895999999999,0.5244058000000001,0.6226804,0.5685843,0.30265555,832.4542,832.8571,824.7985,916.2637300000001,956.5567599999999,-0.900390625,0.05755615234375,0.46795654296875,10.639495849609377,12.0526123046875,-4.329071044921875,75.0,51.0,24.0
