HRV_MeanNN,HRV_SDNN,HRV_SDANN1,HRV_SDNNI1,HRV_SDANN2,HRV_SDNNI2,HRV_SDANN5,HRV_SDNNI5,HRV_RMSSD,HRV_SDSD,HRV_CVNN,HRV_CVSD,HRV_MedianNN,HRV_MadNN,HRV_MCVNN,HRV_IQRNN,HRV_pNN50,HRV_pNN20,HRV_HTI,HRV_TINN,HRV_ULF,HRV_VLF,HRV_LF,HRV_HF,HRV_VHF,HRV_LFHF,HRV_LFn,HRV_HFn,HRV_LnHF,Time,TimeStamp,Delta_TP9,Delta_AF7,Delta_AF8,Delta_TP10,Theta_TP9,Theta_AF7,Theta_AF8,Theta_TP10,Alpha_TP9,Alpha_AF7,Alpha_AF8,Alpha_TP10,Beta_TP9,Beta_AF7,Beta_AF8,Beta_TP10,Gamma_TP9,Gamma_AF7,Gamma_AF8,Gamma_TP10,RAW_TP9,RAW_AF7,RAW_AF8,RAW_TP10,AUX_RIGHT,Accelerometer_X,Accelerometer_Y,Accelerometer_Z,Gyro_X,Gyro_Y,Gyro_Z,Attention,Meditation,A_M
778.5319255907492,32.44012757316119,,,,,,,21.49612669984081,21.56665055019586,0.0416683330597466,0.027611104944128755,784.6153846153846,22.809230769230727,0.02907058823529407,38.46153846153845,1.96078431372549,39.869281045751634,7.65,140.625,,,0.02444735235305153,0.014796174240777409,0.0008680139237197348,1.6522752405602277,0.6094842540977924,0.3688757412422025,-4.2133866288730095,2021-09-24 15:14:00,2021-09-24 15:14:00.004,-0.06852323,-0.07319378,0.38518652,0.83897525,-0.20213945,-0.2098506,0.08331849999999999,0.6799828,0.25648445,0.39688229999999997,0.2995673,0.7398685,0.28344405,-0.010661955,0.017115058,0.40951198,0.044451445,-0.34760344,-0.22080918,0.0785699,803.0403,803.4432400000003,805.4579,787.7289400000003,619.707,0.16375732421875,0.05474853515625,1.0029296875,1.577606201171875,-3.09539794921875,-0.2691650390625,48.0,32.0,16.0
778.7833081950729,32.33643101729855,,,,,,,21.38719292420592,21.45783450868336,0.04152173098347761,0.02746231551081056,784.6153846153846,22.809230769230727,0.02907058823529407,38.46153846153845,1.96078431372549,39.215686274509814,7.2857142857142865,117.1875,,,0.0233870620403156,0.013687744680579886,0.0007967785955526876,1.7086132585083256,0.6175358608544508,0.3614251837151138,-4.291254395358445,2021-09-24 15:14:01,2021-09-24 15:14:01.018,-0.06852323,0.12152484,0.5840696999999999,0.83897525,-0.20213945,-0.29243806,0.265322,0.6799828,0.25648445,0.34169704,0.23747557,0.7398685,0.28344405,0.0007973085000000001,0.037738692000000004,0.40951198,0.044451445,-0.38100278,-0.30504683,0.0785699,839.304,805.05493,801.02563,873.95605,793.7729,0.10223388671875,0.072998046875,1.0228271484375,4.17205810546875,9.368438720703123,1.831817626953125,45.0,41.0,4.0
777.9788838612367,33.321041816314064,,,,,,,22.04155075111936,22.099488534814682,0.042830265072152436,0.028331811066289517,784.6153846153846,34.21384615384618,0.0436058823529412,38.46153846153845,2.6143790849673203,39.869281045751634,7.2857142857142865,125.0,,,0.023053534723977444,0.012835791276380754,0.0007406136695687491,1.7960353380315899,0.6293631638957985,0.35041802940557104,-4.355517816665991,2021-09-24 15:14:02,2021-09-24 15:14:02.000,0.12000706,-0.30920595,-0.26648322,-0.0049334713,0.27994522,-0.05388232,-0.23813143,0.27749959999999996,0.65883106,-0.15289898,-0.008577837,0.70281005,0.7206706,-0.1430731,0.14269815,0.80211085,0.47923163,-0.46840566,-0.17081656,0.47521967,763.95605,808.2784,798.60803,588.2784,568.5348,0.05401611328125,0.06646728515625,1.02313232421875,2.1533203125,-2.51220703125,2.130889892578125,42.0,46.0,-4.0
777.1744595274008,34.07607657274693,,,,,,,22.04155075111936,22.099488534814682,0.04384610965402617,0.02836113626858352,784.6153846153846,34.21384615384618,0.0436058823529412,38.46153846153845,2.6143790849673203,39.869281045751634,7.2857142857142865,125.0,,,0.02362871180422138,0.012587586799828458,0.0007219900161892617,1.8771439021610867,0.6396807401432999,0.3407734161493207,-4.375044125244968,2021-09-24 15:14:03,2021-09-24 15:14:03.005,0.089933075,-0.056233282999999995,0.35788634,0.15833609,0.062449965999999996,-0.05910879700000001,0.1258296,0.49481744,0.6423272,-0.0058046532999999996,0.25885093,0.82242393,0.6978767,-0.071814686,0.13165933,0.8880896,0.5845981,-0.37028494,-0.12088023,0.5664119000000001,812.71063,806.26373,796.5934,962.1978,1041.978,0.06878662109375,0.0714111328125,1.01763916015625,1.95892333984375,-4.074859619140625,0.16448974609375,45.0,45.0,0.0
776.2237762237762,34.640386885488354,,,,,,,22.327360826964465,22.393812807168626,0.044626804726349854,0.028764077461765025,780.7692307692308,28.51153846153854,0.036517241379310436,38.46153846153845,3.2467532467532463,39.61038961038961,7.333333333333332,125.0,,,0.024700911873434653,0.01242810069207398,0.0007081300135168907,1.987504968413046,0.6528218092009741,0.3284629822697901,-4.387795185450525,2021-09-24 15:14:04,2021-09-24 15:14:04.020,0.058454357,0.15841968,0.5974133,0.70442516,-0.15274592,-0.08601483,0.2965782,0.5474270999999999,0.28672403,0.04703631,0.31671900000000003,1.0240154000000001,0.48619288,0.034294132000000005,0.11615376,0.608892,0.26737332,-0.51049477,-0.24149479999999998,0.32480887,783.69965,793.36993,820.7692,627.7655599999998,728.4981700000003,0.09320068359375,0.0643310546875,1.01287841796875,1.07666015625,-7.52166748046875,0.95703125,49.0,40.0,9.0
775.8672699849171,34.469540075714804,,,,,,,23.11063664212564,23.18614614953945,0.04442710938996677,0.02978684310600564,776.9230769230769,34.21384615384618,0.04403762376237627,38.46153846153845,3.92156862745098,39.869281045751634,7.2857142857142865,125.0,,,0.02576301272893304,0.012391654889524609,0.0007030929772952009,2.0790615102355714,0.6630081696408654,0.3188978134493684,-4.3907320257127145,2021-09-24 15:14:05,2021-09-24 15:14:05.038,-0.038709424,0.32027984,0.80744064,1.0369024,-0.30576628,0.005651941999999999,0.34966975,0.72749865,0.05638021,-0.025273731,0.22224672,0.9292458,0.45815635,0.05462763,0.15939854,0.46316618,0.19776694,-0.46895984,-0.25563735,0.3495014,807.8755,806.6667,800.6227,847.3626,678.9377400000002,0.17169189453125,0.06072998046875,1.00567626953125,0.949554443359375,-4.119720458984375,-0.485992431640625,49.0,39.0,10.0
776.1689291101056,34.814594411331306,,,,,,,23.144301097905192,23.218812881770603,0.04485440360418316,0.029818638997106763,776.9230769230769,34.21384615384618,0.04403762376237627,38.46153846153845,3.92156862745098,39.869281045751634,7.2857142857142865,125.0,,,0.026720310923331398,0.012314596369607814,0.0006954251256354219,2.169808097752729,0.6725418413775762,0.3099545264275343,-4.396970023455672,2021-09-24 15:14:06,2021-09-24 15:14:06.035,0.3286097,-0.12241416,-0.20811415,0.04813455,0.23159726,-0.30664045,-0.33582306,0.13553067,0.27849102,0.039621018,-0.10624885,0.5819451999999999,0.5059318,0.01647925,0.17051503,0.51864874,-0.13516551,-0.41414616,-0.16923042,0.28147966,829.6337,790.9524,795.78754,1009.7436,1103.6263,0.17022705078125,0.0621337890625,1.009521484375,1.6448974609375,-3.78326416015625,-0.35888671875,49.0,42.0,7.0
776.4705882352941,35.1536567261355,,,,,,,23.144301097905192,23.218812881770603,0.04527364881396239,0.029807054444271838,776.9230769230769,34.21384615384618,0.04403762376237627,38.46153846153845,3.92156862745098,39.869281045751634,7.2857142857142865,125.0,,,0.0279443962951538,0.012382327941374656,0.0006965879041800554,2.2567966562878383,0.6811833281356099,0.3018363777869449,-4.391484988904326,2021-09-24 15:14:07,2021-09-24 15:14:07.000,-0.027842142,-0.13028471,-0.038480487,0.0077405837,0.19607788,-0.31792226,-0.018482299999999997,0.25226727,0.3990003,0.052684348,0.060761724,0.54466826,0.42885515,-0.11869255,0.096571706,0.5103739,0.08926463,-0.44925109999999996,-0.1193022,0.24571009,821.5751,796.99634,805.4579,945.6777,807.8755,0.18096923828125,0.050537109375,1.00286865234375,1.996307373046875,-3.51409912109375,2.0037841796875,47.0,46.0,1.0
776.3736263736264,35.114354073186924,,,,,,,23.500388179260725,23.577349529938246,0.04522867969794776,0.030269431342006024,776.9230769230769,34.21384615384618,0.04403762376237627,44.23076923076928,3.8961038961038965,40.259740259740255,7.333333333333332,125.0,,,0.029951985184025705,0.012715824992019474,0.0007118202971258353,2.3554889441167792,0.6904619716055466,0.2931289375524724,-4.364907998845254,2021-09-24 15:14:08,2021-09-24 15:14:08.014,0.63727003,-0.029079003,0.52713794,0.7703314,0.72473395,-0.011625016,0.23596455,0.71041214,0.8841150999999999,0.02849664,0.4569755999999999,0.9982656999999999,0.45134127,-0.030084642,0.13261838,0.6136767,0.26176289999999997,-0.24972633,-0.08541497599999999,0.37298359999999997,788.1319,801.4286,811.9048,631.39197,477.0696,0.18109130859375,0.045166015625,1.00518798828125,1.86920166015625,-3.66363525390625,-0.829925537109375,44.0,40.0,4.0
776.2237762237762,35.19418489460094,,,,,,,23.21060658813707,23.286340419578167,0.045340256215566976,0.029901952631563974,776.9230769230769,34.21384615384618,0.04403762376237627,46.15384615384619,3.8961038961038965,39.61038961038961,7.333333333333332,125.0,,,0.03188875774929896,0.013161823300585178,0.0007336227316390548,2.4228222048750023,0.6965013064651804,0.2874752035307164,-4.330434814005262,2021-09-24 15:14:09,2021-09-24 15:14:09.001,0.5148444000000001,-0.18726225,0.56958187,0.8705105,0.5952879,-0.04722401,0.22875106,0.8084077,0.95884264,0.07717327,0.36646292,1.0717008,0.4501395,0.11024737,0.21800931,0.7386996,0.24413393,-0.2788817,-0.1471834,0.30877575,810.293,799.0110000000003,796.1905,877.5824,898.9377400000003,0.17864990234375,0.04571533203125,1.0029296875,0.904693603515625,-3.327178955078125,-0.55328369140625,49.0,40.0,9.0
776.7219708396179,34.86133621513954,,,,,,,23.15270956361327,23.229192163515915,0.04488264465785005,0.0298082331037781,776.9230769230769,34.21384615384618,0.04403762376237627,46.15384615384619,3.92156862745098,39.215686274509814,7.2857142857142865,125.0,,,0.034184767588852284,0.013742052991975305,0.0007609057634477218,2.487602660884406,0.7021228994578368,0.28224881348543585,-4.2872945861752365,2021-09-24 15:14:10,2021-09-24 15:14:10.000,0.63609475,-0.23453565,0.3108533,0.8346959999999999,0.8389904,-0.18006162,0.31391603,0.91584444,0.97365427,0.081579365,0.44337794,0.86391485,0.55863565,-0.068841524,0.24200477,0.72201216,0.23592286,-0.60912883,-0.12169892,0.16239549,791.75824,805.8608,796.99634,596.7399,626.1539,0.17236328125,0.04815673828125,1.0084228515625,2.0037841796875,-3.835601806640625,0.560760498046875,52.0,43.0,9.0
776.5711412770238,35.010563308751266,,,,,,,22.88210614624336,22.95320124892462,0.04508352351489465,0.029465563333470182,776.9230769230769,34.21384615384618,0.04403762376237627,46.15384615384619,3.92156862745098,38.56209150326797,7.2857142857142865,125.0,,,0.03616713287498094,0.014341426605373447,0.0007886630094511522,2.5218643772461133,0.7050505099407389,0.27957510970937194,-4.244602964423235,2021-09-24 15:14:11,2021-09-24 15:14:11.002,0.73418206,-0.4558390000000001,0.14699565,0.65645725,0.86092895,-0.23498885,0.1607993,0.7919703,0.8458888000000001,0.08913829,0.27188417,0.7058127,0.55377203,-0.058274652999999996,0.07809678,0.6477085,0.37165835,-0.64150107,-0.023257603999999998,0.23969123,784.90845,793.36993,811.9048,739.7802,577.8022,0.17437744140625,0.050048828125,1.0093994140625,2.160797119140625,-3.4393310546875,0.04486083984375,56.00000000000001,43.0,13.000000000000007
775.5744255744256,35.61766780080479,,,,,,,22.849558684077106,22.916605948943964,0.04592424224718953,0.02946146485832573,776.9230769230769,34.21384615384618,0.04403762376237627,46.15384615384619,3.8961038961038965,38.31168831168832,7.333333333333332,117.1875,,,0.037985185698400516,0.01496330651800593,0.0008149059506271472,2.5385556095299826,0.7065250150369421,0.2783177222451141,-4.202154306927119,2021-09-24 15:14:12,2021-09-24 15:14:12.001,0.4985156,0.21045078,0.75264686,-0.41290659999999996,0.5562749,-0.05628068,0.24732439,0.22574587,0.532411,0.19112131,0.39324138,0.38432357,0.5418764,-0.08005131,0.03236611,0.5649090999999999,0.37103203,-0.39718196,-0.22144163,0.24674754,781.685,801.02563,798.60803,636.63007,655.16486,0.1790771484375,0.04766845703125,1.00494384765625,1.308441162109375,-3.12530517578125,0.85235595703125,61.0,44.0,17.0
775.0628456510809,35.624365388970844,,,,,,,22.805420413777593,22.880810438957553,0.0459631958735489,0.029423962897641168,776.9230769230769,34.21384615384618,0.04403762376237627,46.15384615384619,3.2679738562091507,38.56209150326797,7.2857142857142865,117.1875,,,0.03827549558110655,0.015092806545590125,0.000811304031715335,2.5360091554535984,0.7064557735837996,0.2785698829456477,-4.1935370363791975,2021-09-24 15:14:13,2021-09-24 15:14:13.043,0.19675592,-0.05873444,0.5562153000000001,0.3931111,-0.04911042,-0.39307308,0.1812134,0.42218682,0.17010498,0.10674542,0.44378698,0.6397482,0.18674819,-0.24977686,0.064834,0.3550365,-0.13875684,-0.48826438,-0.20508176,0.18317324,819.5604,799.0110000000003,803.8461,946.4835,972.2710599999999,0.18048095703125,0.05224609375,1.0064697265625,2.43743896484375,-3.357086181640625,-0.16448974609375,61.0,43.0,18.0
774.7752247752247,35.68669831234553,,,,,,,22.80720543416337,22.881605766703917,0.04606071176669185,0.02943718991631427,776.9230769230769,34.21384615384618,0.04403762376237627,46.15384615384619,3.2467532467532463,38.96103896103897,7.333333333333332,117.1875,,,0.03854200414090606,0.015377620659005168,0.0008083795341470849,2.5063698081494667,0.7042464750888169,0.2809826677607422,-4.1748420304482075,2021-09-24 15:14:14,2021-09-24 15:14:14.018,0.20848633,-0.42070806,-0.117149904,0.12911275,0.16010326,-0.3162344,-0.37382350000000003,0.12852614,0.6476029000000001,-0.025859587000000003,-0.12921880000000002,0.60650694,0.29977729999999997,-0.018028101,0.087690875,0.33874184,-0.19228998,-0.6353460999999999,-0.38331258,0.16602455,780.87915,792.96704,794.9817,717.2161,757.9121,0.17803955078125,0.0521240234375,1.00994873046875,1.6748046875,-3.865509033203125,-0.37384033203125,62.0,39.0,23.0
774.4255744255745,36.153826009890494,,,,,,,22.80720543416337,22.87537790569593,0.04668470051070741,0.029450480701235206,776.9230769230769,34.21384615384618,0.04403762376237627,46.15384615384619,3.2467532467532463,38.96103896103897,7.333333333333332,117.1875,,,0.038482302362497736,0.015632781978455138,0.0008029621262499134,2.461641339048511,0.7007223460776136,0.284656556161208,-4.158385160722597,2021-09-24 15:14:15,2021-09-24 15:14:15.001,0.73146224,-0.50089896,-0.24172884,0.67320055,0.60525393,-0.15186906,-0.20309965,0.68009543,0.8097153,0.25413603,-0.23431806,0.67437345,0.43204036,-0.077068396,0.045579012,0.42067686,-0.025774835,-0.56160104,-0.4527489000000001,0.13524702,777.25275,794.9817,798.20514,693.4432400000003,800.2198,0.1741943359375,0.04827880859375,1.00408935546875,1.532745361328125,-2.953338623046875,-0.059814453125,59.0,41.0,18.0
773.8562091503269,36.86293040265026,,,,,,,22.822483955569147,22.88982253526941,0.04763537459126258,0.029491892273666213,776.9230769230769,34.21384615384618,0.04403762376237627,46.15384615384619,3.2679738562091507,39.215686274509814,7.65,117.1875,,,0.037828591671993726,0.01587615633617106,0.0007868654256737719,2.3827298541907065,0.6942094257848251,0.29135045442262825,-4.142936896782324,2021-09-24 15:14:16,2021-09-24 15:14:16.000,0.74233866,-0.4739406,-0.108059295,0.7064654,0.5221975,-0.05376125,-0.062147588,0.5174718,0.71764773,0.21201873,0.22997269,0.693283,0.48223507,-0.10576936,0.14129616,0.43473586,0.13482170000000002,-0.6720088000000001,-0.36369807,0.13724492,790.14655,803.4432400000003,808.6813400000003,620.5128,691.8315,0.18170166015625,0.050048828125,1.011962890625,2.4224853515625,-3.895416259765625,-0.022430419921875,56.99999999999999,43.0,13.999999999999993
772.8771228771228,37.58372897983777,,,,,,,22.654078116063413,22.715878547462875,0.04862833672696647,0.029311358100147976,776.9230769230769,34.21384615384618,0.04403762376237627,46.15384615384619,3.2467532467532463,38.31168831168832,8.105263157894736,117.1875,,,0.03681751874984401,0.015970646722689923,0.0007652852052221847,2.3053242231910605,0.6874910633001745,0.29821881728572663,-4.137002821476856,2021-09-24 15:14:17,2021-09-24 15:14:17.000,0.113136515,-0.5650538,-0.10664435,0.13576797,0.19124544,-0.28886756,0.08005817,0.28690454,0.28248670000000003,0.036487352,0.21806632,0.44659126,0.5216654000000001,-0.18279693,0.11014152,0.50413394,0.16900639999999995,-0.53447455,-0.30942792,0.14045691,782.8938,802.2344400000003,805.4579,653.95605,533.8828,0.180908203125,0.0528564453125,1.00457763671875,2.280426025390625,-3.81317138671875,-0.179443359375,55.00000000000001,43.0,12.000000000000007
772.2277722277722,37.708174170622016,,,,,,,22.55141560236116,22.62092137526945,0.04883037819507456,0.029203062118969617,776.9230769230769,34.21384615384618,0.04403762376237627,46.15384615384619,3.2467532467532463,37.662337662337656,8.105263157894736,125.0,,,0.03540713365502855,0.01595318198561376,0.000736197387998913,2.2194402149337957,0.6796449819119889,0.30622360419483624,-4.138096972117626,2021-09-24 15:14:18,2021-09-24 15:14:18.008,0.23736338,-0.53956205,-0.4201602,0.049514625,0.1279952,-0.34882486,-0.18474807,0.40362388,0.4075864,0.07758535,0.1005115,0.7254654,0.4978929,-0.1580914,0.051698882,0.5457974,0.15178421,-0.45753267,-0.31930318,0.2273909,794.9817,800.2198,801.8315,701.9048,740.9889999999997,0.17132568359375,0.05548095703125,1.0064697265625,1.8841552734375,-3.42437744140625,0.291595458984375,50.0,45.0,5.0
771.8281718281719,37.86077596293135,,,,,,,22.482713491144587,22.55649214575087,0.049053373982519126,0.029129169304472857,776.9230769230769,34.21384615384618,0.04403762376237627,53.84615384615381,3.2467532467532463,37.662337662337656,8.555555555555555,125.0,,,0.03373499269724983,0.01600738879689454,0.0007011454700056487,2.1074638171963733,0.6687675253402708,0.3173328623169216,-4.134704863533162,2021-09-24 15:14:19,2021-09-24 15:14:19.020,0.2907161,-0.016831851999999998,0.16559824,0.19304848,0.14970833,-0.11455158,-0.039340124,0.36880007,0.30961534,0.37087658,0.3235844,0.708883,0.49282387,-0.104348585,0.17364421,0.37105855,0.2033234,-0.5899897,-0.40293002,0.045866236,803.4432400000003,792.5641,802.6374,920.293,838.0952,0.1793212890625,0.052001953125,1.0107421875,1.472930908203125,-3.536529541015625,-0.2093505859375,45.0,47.0,-2.0
771.6783216783217,38.00843763586133,,,,,,,22.439667858146716,22.51132717648237,0.049254250855715186,0.029079043984730223,776.9230769230769,34.21384615384618,0.04403762376237627,53.84615384615381,3.2467532467532463,37.01298701298701,8.555555555555555,125.0,,,0.03170938409881383,0.015699931226630805,0.0006567660026310679,2.0197148408540286,0.6597039580235591,0.3266322278171733,-4.154098947106846,2021-09-24 15:14:20,2021-09-24 15:14:20.015,0.26880807,0.29564047,0.43694445,0.15858875,0.30310667,-0.15261470000000002,-0.030967887000000006,0.34268266,0.22460216,0.503646,0.36159205,0.27696094,0.4948791,0.22427434,0.32568990000000003,0.30621868,0.17189970000000002,0.22515178,0.22136079,0.051947474,773.6264,804.2491,806.26373,659.59705,551.2088,0.17120361328125,0.049072265625,1.0050048828125,1.39068603515625,-2.64678955078125,-0.10467529296875,48.0,52.0,-4.0
771.3786213786212,38.209296069204846,,,,,,,22.431048818897267,22.50194408849237,0.049533776293821205,0.02907916838401368,776.9230769230769,34.21384615384618,0.04403762376237627,53.84615384615381,3.2467532467532463,37.01298701298701,8.555555555555555,125.0,,,0.029323073894758463,0.015139183663258641,0.0006027720880400693,1.9368992771996532,0.6506835594043373,0.33594083443775563,-4.190468951630051,2021-09-24 15:14:21,2021-09-24 15:14:21.036,0.26880807,-0.17290828,0.002454097,0.15858875,0.30310667,-0.637818,-0.06679356,0.34268266,0.22460216,0.2820467,0.38999978,0.27696094,0.4948791,0.54967505,0.35957986,0.30621868,0.17189970000000002,0.4178031,0.28265113,0.051947474,754.2857,818.7546,790.54944,555.2381,534.6886599999998,0.17315673828125,0.057861328125,1.00823974609375,1.375732421875,-3.297271728515625,0.5084228515625,71.0,59.0,12.0
771.2287712287712,38.23265424837939,,,,,,,22.56855845212093,22.642169757333583,0.04957368769770437,0.029263117889343337,776.9230769230769,34.21384615384618,0.04403762376237627,53.84615384615381,3.2467532467532463,37.662337662337656,8.555555555555555,125.0,,,0.02683287121473448,0.014536817747946209,0.0005419590930467057,1.8458559280297424,0.6402246740346843,0.34684433617636506,-4.2310706927324375,2021-09-24 15:14:22,2021-09-24 15:14:22.000,0.26880807,0.4489999,0.37753344,0.13012013,0.30310667,-0.07059576,0.21547355,0.376259,0.22460216,0.29347494,0.3903064000000001,0.06801876400000001,0.4948791,0.9007774,0.40356606,0.75232613,0.17189970000000002,0.9149356,0.5559053,0.9296978000000001,761.53845,782.8938,811.9048,676.5201400000002,603.1868,0.17132568359375,0.05267333984375,1.00689697265625,1.42059326171875,-3.30474853515625,-0.411224365234375,98.0,66.0,32.0
771.0789210789211,38.16431353444671,,,,,,,22.53425971124939,22.60820777683457,0.04949469177687524,0.0292243233412718,776.9230769230769,34.21384615384618,0.04403762376237627,53.84615384615381,3.2467532467532463,37.662337662337656,8.555555555555555,125.0,,,0.024921179476445208,0.013953762633604795,0.0004925648019566448,1.7859827582581649,0.6330393116370935,0.3544487250562736,-4.2720060842443734,2021-09-24 15:14:23,2021-09-24 15:14:23.025,0.26880807,0.5205728000000001,0.37753344,0.13012013,0.30310667,0.077494316,0.21547355,0.376259,0.22460216,0.37768507,0.3903064000000001,0.06801876400000001,0.4948791,0.9323509,0.40356606,0.75232613,0.17189970000000002,0.83395696,0.5559053,0.9296978000000001,804.65204,806.6667,788.9377400000003,839.304,739.3773,0.18408203125,0.06402587890625,1.005126953125,1.80938720703125,-3.349609375,-0.61309814453125,100.0,74.0,26.0
770.979020979021,38.148780937320865,,,,,,,22.465505135396217,22.539227233165136,0.04948095849466561,0.02913893183094476,776.9230769230769,34.21384615384618,0.04403762376237627,53.84615384615381,3.2467532467532463,37.01298701298701,9.058823529411764,125.0,,,0.02342745279251261,0.013468034805593124,0.0004501784196312553,1.7394856139504076,0.6273138302416659,0.3606318012697001,-4.307436193368774,2021-09-24 15:14:24,2021-09-24 15:14:24.003,0.26880807,-0.031344287,0.73220825,0.13012013,0.30310667,0.474886,0.93322754,0.376259,0.22460216,0.92841715,1.1991588,0.06801876400000001,0.4948791,0.72537994,0.5866759,0.75232613,0.17189970000000002,0.54741955,0.6309710999999999,0.9296978000000001,790.9524,794.9817,830.0366,875.9707,1016.1905,0.1802978515625,0.0572509765625,1.00799560546875,2.1533203125,-3.401947021484375,0.13458251953125,100.0,76.0,24.0
770.4218362282878,38.44297189713518,,,,,,,22.58891258554589,22.657070999669017,0.04989860111616039,0.029320187361424232,776.9230769230769,34.21384615384618,0.04403762376237627,53.84615384615381,3.2258064516129035,37.41935483870968,9.117647058823527,125.0,,,0.022162293517236583,0.0130273772701646,0.000407690327341464,1.701209158039266,0.6225824842970754,0.3659646912638507,-4.3407021920531745,2021-09-24 15:14:25,2021-09-24 15:14:25.029,0.26880807,0.17133035,0.7501642,0.13012013,0.30310667,0.4690201,0.95159405,0.376259,0.22460216,0.92841715,1.2062892,0.06801876400000001,0.4948791,0.6432425,0.66439474,0.75232613,0.17189970000000002,0.5308783,0.6670013000000001,0.9296978000000001,825.2015,799.41394,797.3993,903.7729,877.1795,0.17822265625,0.0618896484375,1.01483154296875,2.056121826171875,-3.6187744140625,-0.366363525390625,100.0,78.0,22.0
769.98001998002,38.734770855565316,,,,,,,22.61135871520664,22.68000769054841,0.050306202564282684,0.029366162924322863,776.9230769230769,34.21384615384618,0.04403762376237627,53.84615384615381,3.2467532467532463,37.01298701298701,9.625,148.4375,,,0.02150119655016681,0.012753641069930663,0.00037975870130410296,1.6858869112178732,0.6208011304835301,0.368234148063388,-4.361938474034019,2021-09-24 15:14:26,2021-09-24 15:14:26.026,0.21177036,0.012487125,0.43419835,0.13012013,0.11623154599999999,-0.100024715,0.3304792,0.376259,0.45392677,0.32000732,0.50930846,0.06801876400000001,0.48510545,0.46710473,0.5563365,0.75232613,0.45822743,0.36421353,0.45280537,0.9296978000000001,827.6189999999997,809.8901400000003,792.5641,1021.4286,956.9597,0.1767578125,0.05938720703125,1.01495361328125,2.325286865234375,-3.043060302734375,-0.5084228515625,100.0,80.0,20.0
769.1811414392059,38.893644368571614,,,,,,,22.401024227058713,22.463157520035253,0.05056499993720357,0.029123210411977095,776.9230769230769,34.21384615384618,0.04403762376237627,50.0,3.2258064516129035,36.129032258064505,9.6875,125.0,,,0.021024506901942484,0.012494247314223684,0.000355560096185085,1.6827349717984046,0.6206622135012938,0.368841335030892,-4.382486955467349,2021-09-24 15:14:27,2021-09-24 15:14:27.001,0.5968025,-0.25084248,-0.17812572,0.21431915,0.053567387,-0.061572800000000004,-0.032220717999999995,0.04232111,0.36073878,0.22872293,0.12597297,0.5285828,0.47080559999999994,0.27148178,0.43854332,0.43511179999999994,0.35934022,0.25283226,0.36406663,0.5032777,831.2454,808.6813400000003,808.6813400000003,1005.7143,784.5055,0.18243408203125,0.0634765625,1.01068115234375,2.071075439453125,-4.029998779296875,0.082244873046875,100.0,87.0,13.0
768.5359801488834,38.69427825536672,,,,,,,22.401024227058713,22.46606405527677,0.05034803737864131,0.029147658412452086,776.9230769230769,34.21384615384618,0.04403762376237627,46.15384615384608,3.2258064516129035,36.129032258064505,9.6875,148.4375,,,0.02059601800647651,0.012159252564560168,0.00032961991805012297,1.6938555965608009,0.6225203620749538,0.3675167843934968,-4.409664871063521,2021-09-24 15:14:28,2021-09-24 15:14:28.023,0.8401705,-0.21657641,0.16689408,0.38629040000000003,0.13362822,0.022449886000000002,-0.14096645,0.014424844,0.36073878,0.12123456,0.12418511,0.4049751,0.50575954,0.107915774,0.4136129,0.37986785,0.43236485,-0.054672793,0.15112899,0.5208237,795.38464,797.3993,803.0403,705.9341,716.0073,0.1868896484375,0.0623779296875,1.00628662109375,2.43743896484375,-3.730926513671875,-0.186920166015625,100.0,88.0,12.0
767.8908188585608,38.61257444567722,,,,,,,22.09881888359882,22.168144321262933,0.05028393815552227,0.02877859500449275,776.9230769230769,34.21384615384618,0.04403762376237627,49.99999999999989,3.2258064516129035,35.483870967741936,9.6875,148.4375,,,0.020378001736593158,0.011900698183778915,0.0003125596341372534,1.7123366563794646,0.6252597173334362,0.3651499925578156,-4.431158209679931,2021-09-24 15:14:29,2021-09-24 15:14:29.002,0.4014282,-0.01116892,0.03881494,0.41078022,0.5594299,-0.17283082,-0.014251136000000001,0.60041726,0.7337102,0.03850297,0.14925182,0.7756621,0.3849214,0.0028100921999999998,0.19918588,0.47875208,0.118987545,-0.1113483,0.040172745,0.29475603,802.2344400000003,807.8755,807.47253,774.83514,613.2601,0.1767578125,0.0589599609375,1.013671875,2.295379638671875,-3.30474853515625,-0.949554443359375,100.0,85.0,15.0
767.0118343195268,39.15513182779112,,,,,,,22.113901126207022,22.18105759021999,0.051048927898913785,0.02883123849819855,773.0769230769231,39.91615384615382,0.051632835820895485,53.84615384615381,3.205128205128205,35.8974358974359,9.75,125.0,,,0.020409386280466,0.011753668486790108,0.00030099127739422263,1.736426912448995,0.6286766058794823,0.3620518671832949,-4.44358987547817,2021-09-24 15:14:30,2021-09-24 15:14:30.000,0.53663,-0.05575562,0.17458127,0.72271556,0.63792324,-0.29566342,0.13012971,0.7653399999999999,0.70141834,0.07415144,0.33152813,0.8125102,0.64592034,0.05640847,0.31796473,0.54078424,0.24252282,-0.10527059,-0.046458393,0.3034152,819.15753,796.1905,796.99634,953.7362699999999,1075.4213,0.18048095703125,0.0635986328125,1.011962890625,1.48040771484375,-3.6785888671875,0.485992431640625,94.0,77.0,17.0
766.6501240694788,39.43110996693277,,,,,,,22.211546570311327,22.28198648743618,0.05143299235070529,0.028972207625050064,769.2307692307692,45.61846153846145,0.059303999999999885,53.84615384615381,3.2258064516129035,36.129032258064505,9.6875,125.0,,,0.02109736140951984,0.011915751892292374,0.00029872251067447587,1.770543864979811,0.6333292925756933,0.3577032487601853,-4.429894065739916,2021-09-24 15:14:31,2021-09-24 15:14:31.002,-0.0016811735,-0.51033103,0.030859257999999997,0.27787304,0.09992104,-0.33307216,-0.088316314,0.38390595,0.4262008,0.046854977,0.22881039999999997,0.6257881,0.56922823,-0.027360387000000003,0.29306024,0.5343317,0.29365915,-0.15001588,-0.10348581,0.27461475,863.4798599999997,788.1319,835.2747,920.696,866.30035,0.17950439453125,0.057861328125,1.0079345703125,2.295379638671875,-2.803802490234375,-0.478515625,87.0,67.0,20.0
766.3214990138067,39.42072387790205,,,,,,,22.19144865043313,22.262491446269003,0.05144149541495744,0.028958405419907587,769.2307692307692,45.61846153846145,0.059303999999999885,53.84615384615381,3.205128205128205,36.53846153846153,9.75,125.0,,,0.021804660122329348,0.012123600967152513,0.00030129914891716494,1.7985300061760974,0.6370125695587723,0.3541851219447496,-4.412601232968224,2021-09-24 15:14:32,2021-09-24 15:14:32.012,-0.54737854,0.70276916,0.7718779,-0.028444099999999996,-0.19761644,0.7450798000000001,0.62494045,0.35035697,-0.049543984000000006,0.3484508,0.31316540000000004,0.37384486,0.42645296,-0.04311151,0.22092229,0.5966294,0.19173442,-0.3034437,-0.060137272,0.33583155,780.4762,814.3223,803.0403,610.0366,593.91943,0.17999267578125,0.058349609375,1.00726318359375,2.3028564453125,-3.401947021484375,-0.19439697265625,61.0,55.00000000000001,5.999999999999992
765.9270216962525,39.544188397634656,,,,,,,22.320095807292734,22.38973400121364,0.051629185650166165,0.02914128262228138,769.2307692307692,45.61846153846145,0.059303999999999885,53.84615384615381,3.205128205128205,37.17948717948718,10.4,125.0,,,0.02259159967151271,0.01237812466319036,0.00030691616682104397,1.825122971874312,0.6404124471698672,0.3508872865219569,-4.391824504364062,2021-09-24 15:14:33,2021-09-24 15:14:33.000,0.34062263,0.47145119999999996,-0.42343959999999997,0.18482639,0.11087063,0.52803,-0.2834067,-0.029780162000000002,0.63901705,0.34839169999999997,-0.3458679,0.51177835,0.5417638000000001,-0.08088305,0.10524635,0.46506400000000003,0.24124643,-0.493479,-0.18241027,0.33612412,806.26373,805.05493,805.4579,930.3663,805.05493,0.18243408203125,0.059814453125,1.009033203125,1.652374267578125,-3.90289306640625,-0.3289794921875,37.0,46.0,-9.0
765.5086848635235,40.002639952744005,,,,,,,22.315097465318228,22.382294504852467,0.05225628493016477,0.029150678374467567,769.2307692307692,45.61846153846145,0.059303999999999885,57.692307692307736,3.2258064516129035,36.774193548387096,10.333333333333334,125.0,,,0.023846379827465392,0.01286020085104855,0.00032073853858083503,1.8542774023254147,0.6440212343662188,0.3473165522907003,-4.353617942017135,2021-09-24 15:14:34,2021-09-24 15:14:34.008,0.5611547,-0.68705565,0.42218173,0.73320943,0.23004228,-0.26770556,0.22152384,0.4338642,0.75047964,0.23890813,-0.07568481,0.74606884,0.60897255,-0.041697066,0.10523848,0.49001786,0.3121534,-0.4592378,-0.19387662,0.36068702,780.07324,801.02563,805.05493,597.5458,562.8938,0.176513671875,0.05560302734375,1.00360107421875,2.056121826171875,-2.624359130859375,-0.07476806640625,27.0,39.0,-12.0
764.9901380670611,40.20651852535432,,,,,,,22.777210056493434,22.85055420244213,0.05255821810585185,0.029774514628444423,769.2307692307692,45.61846153846145,0.059303999999999885,61.53846153846154,3.8461538461538463,37.17948717948718,10.4,125.0,,,0.02431869269615259,0.01298347932277518,0.00032714177955357195,1.8730489795207328,0.6462698954965811,0.3450363031413869,-4.344077551023779,2021-09-24 15:14:35,2021-09-24 15:14:35.001,0.13548429999999995,-0.34452054,0.28144509999999995,0.37389296,-0.024398872999999998,-0.29612792,0.106444076,0.44279456,0.56108755,0.16109790000000002,0.03322677,0.8687229,0.6238563,0.04580638,0.23109265,0.5634116,0.3569039,-0.3785337,-0.13989052,0.45287479999999997,779.67035,804.65204,793.7729,582.6374,577.8022,0.185302734375,0.05865478515625,1.007080078125,1.6448974609375,-3.24493408203125,0.10467529296875,21.0,35.0,-14.0
764.8915187376724,40.17692772974907,,,,,,,22.78558865161091,22.859231243975486,0.05252630830062604,0.029789307494499057,769.2307692307692,45.61846153846145,0.059303999999999885,61.53846153846154,3.8461538461538463,37.17948717948718,11.142857142857142,148.4375,,,0.025512590723728457,0.013524166167066764,0.0003455181341969222,1.8864446361103715,0.6478191193255867,0.3434074379523346,-4.303277107383618,2021-09-24 15:14:36,2021-09-24 15:14:36.022,0.37127292,-0.46954650000000003,0.027506997999999998,0.6115388,0.48084643,-0.58925414,0.02000641,0.6392412,0.73413223,0.028745614,-0.09367279,0.75922394,0.5245095000000001,0.01842308,0.21400885,0.6655844,0.2778843,-0.34543297,-0.007940805,0.38147074,836.08057,804.65204,799.41394,1004.1025400000001,891.28204,0.18951416015625,0.061767578125,1.00823974609375,1.368255615234375,-3.237457275390625,0.575714111328125,35.0,47.0,-12.0
764.863523573201,40.324696092033506,,,,,,,22.792115291927594,22.864501080566743,0.05272142656725118,0.029798930906588438,769.2307692307692,45.61846153846145,0.059303999999999885,61.53846153846154,3.870967741935484,37.41935483870968,11.923076923076925,148.4375,,,0.026371180608645604,0.013922294926559749,0.00036296706935236067,1.8941690825940591,0.6486347284523439,0.3424376072932415,-4.2742637722508965,2021-09-24 15:14:37,2021-09-24 15:14:37.000,0.49972743,-0.33957487,-0.031120283999999998,0.6825260999999999,0.52969754,-0.23851131,0.017935913,0.63557786,0.6731358000000001,-0.19153516,-0.0001451646,0.7782051,0.5882727,-0.09981509,0.22445223,0.73591936,0.31271204,-0.45946014,-0.13396752,0.18756875,782.8938,796.1905,798.60803,705.12823,1003.69965,0.18017578125,0.05859375,1.0089111328125,1.734619140625,-3.312225341796875,0.64300537109375,47.0,56.00000000000001,-9.000000000000009
765.1380670611439,40.27411204967133,,,,,,,22.99406132613986,23.06854283725124,0.05263639829653505,0.03005217269408496,769.2307692307692,45.61846153846145,0.059303999999999885,61.53846153846154,3.8461538461538463,37.82051282051282,12.0,148.4375,,,0.028383844185379214,0.01499011831005444,0.00039556970016189924,1.893503680110456,0.6484840655490357,0.3424783761239941,-4.200364074300082,2021-09-24 15:14:38,2021-09-24 15:14:38.019,0.039237622,-0.41463575,0.040857617,0.41588578,0.12191854,-0.18130402,0.14120695,0.47038725,0.4707367,-0.0135247735,0.08492904,0.7322969,0.57566774,-0.11103684,0.20726342,0.5484488000000001,0.36468646,-0.45133406,-0.2535971,0.27938014,783.69965,799.0110000000003,802.2344400000003,780.87915,649.5238,0.1827392578125,0.06207275390625,1.00531005859375,1.727142333984375,-3.446807861328125,0.007476806640625,55.00000000000001,56.99999999999999,-1.9999999999999856
764.9901380670611,40.32976184212244,,,,,,,22.89423135544733,22.96579863798585,0.05271932255757658,0.029927485618697423,769.2307692307692,45.61846153846145,0.059303999999999885,61.53846153846154,3.8461538461538463,37.17948717948718,12.0,148.4375,,,0.030151519426438688,0.016007616445315755,0.0004300831135383581,1.8835733308228917,0.6471780399657883,0.3435905729685876,-4.134690642175427,2021-09-24 15:14:39,2021-09-24 15:14:39.000,0.05529253,0.04459304,0.23168197,0.51422656,0.1911339,-0.054949824,0.11053352,0.45297259999999995,0.22678922,0.08713778,0.33857226,0.6784685,0.5455849,-0.03270559,0.21585144,0.5400761,0.34564555,-0.41551897,-0.14440241,0.3402715,832.4542,805.8608,801.02563,1034.3224,1458.608,0.18316650390625,0.063720703125,1.00897216796875,1.682281494140625,-3.730926513671875,0.10467529296875,56.00000000000001,52.0,4.000000000000006
764.9131513647643,40.448988901061824,,,,,,,23.2097409971248,23.285250592254137,0.05288049869307698,0.03034297548122135,769.2307692307692,45.61846153846145,0.059303999999999885,61.53846153846154,4.516129032258063,37.41935483870968,11.923076923076925,148.4375,,,0.03163123827200992,0.01697862519324583,0.0004622261945283743,1.8630035065850297,0.6445871470179627,0.3459935232218217,-4.075800067616819,2021-09-24 15:14:40,2021-09-24 15:14:40.006,0.27028656,0.28557548,0.7384759,0.8684130999999999,0.42237172,0.36667266,0.5499689999999999,0.7484970999999999,0.19665602,0.18185958,0.620398,0.6139544,0.5626855,0.0010758349,0.17829658,0.515269,0.30180228,-0.43390077,-0.07650372,0.35182357,792.1612,806.26373,794.9817,692.6374,833.663,0.18011474609375,0.05303955078125,1.0040283203125,1.1065673828125,-3.1103515625,0.201873779296875,44.0,46.0,-2.0
764.7642679900744,40.332809812001464,,,,,,,23.2097409971248,23.285250592254137,0.05273887850174104,0.03034888261467,769.2307692307692,45.61846153846145,0.059303999999999885,61.53846153846154,4.516129032258063,37.41935483870968,11.071428571428573,148.4375,,,0.032195129892136215,0.017502558308211173,0.00047914112582160784,1.839452800281896,0.6416334057868681,0.34881754274343857,-4.045408219696607,2021-09-24 15:14:41,2021-09-24 15:14:41.028,0.38030106,0.32743564,0.98500454,0.71627283,0.40059114,0.29978928,0.71076554,0.476249,0.7331622,0.35752288,0.52059823,1.01767,0.49705595,0.14318104,0.33319390000000004,0.43464994,0.33073252,-0.28711095,-0.13919814,0.039771600000000004,812.3077,805.8608,803.4432400000003,977.1062,868.315,0.177001953125,0.05474853515625,1.00469970703125,2.100982666015625,-3.3795166015625,-0.545806884765625,35.0,35.0,0.0
764.8422090729782,40.1952875477669,,,,,,,23.13474971547749,23.2097409971248,0.05255369940485545,0.030247741875435726,769.2307692307692,45.61846153846145,0.059303999999999885,61.53846153846154,4.487179487179487,37.17948717948718,10.4,125.0,,,0.03266943843652932,0.018044214499303067,0.0004942661024951376,1.8105215074777088,0.6379762944883051,0.3523715635817487,-4.014930171937198,2021-09-24 15:14:42,2021-09-24 15:14:42.001,0.9975805,0.045023993,0.7223571,0.9854761000000001,0.9842755999999999,-0.13389789,0.4117814,0.92086613,0.93359125,0.23958252,0.43765622,1.0527427,0.44631553,0.08589361599999999,0.17631724,0.5059170999999999,0.18962476,-0.30907226,-0.27232248,0.024522852,776.8498,799.81683,806.26373,596.7399,554.0293,0.1881103515625,0.0584716796875,1.00848388671875,1.891632080078125,-3.506622314453125,-0.844879150390625,29.0,26.0,2.9999999999999964
764.6449704142012,40.135092034763495,,,,,,,23.258179809256404,23.33309311384877,0.052488532047785114,0.030416965662714894,769.2307692307692,45.61846153846145,0.059303999999999885,61.53846153846154,4.487179487179487,37.82051282051282,10.4,117.1875,,,0.03266482766942193,0.018471182393370228,0.0005027814310945839,1.7684210449432933,0.6325637514830098,0.3576997419770549,-3.9915434698535432,2021-09-24 15:14:43,2021-09-24 15:14:43.001,0.030615112000000007,-0.31247944,0.2914868,0.42338625,0.15684034,-0.39378014,-0.19754642,0.44355807,0.5281939999999999,0.15761417,0.17054160000000002,0.8423855,0.48025209999999996,-0.006376889,0.044907935,0.42835736,0.12171667,-0.3582358,-0.33342367,0.08403508,814.3223,802.6374,800.2198,868.71796,865.4945,0.18206787109375,0.0589599609375,1.0093994140625,1.532745361328125,-3.42437744140625,0.545806884765625,24.0,29.0,-4.9999999999999964
764.4168734491315,40.220979425735024,,,,,,,23.325336295583877,23.401224106844026,0.05261655102438231,0.030513895108486344,769.2307692307692,45.61846153846145,0.059303999999999885,61.53846153846154,4.516129032258063,38.064516129032256,11.071428571428573,125.0,,,0.032056610280537995,0.018510580579767247,0.0004983118709569337,1.7317992886499232,0.6277547182731057,0.3624869939532606,-3.989412787152955,2021-09-24 15:14:44,2021-09-24 15:14:44.000,0.22467226,-0.14326607,0.60226893,0.19655997,0.44382745,-0.068713516,0.2481152,0.3193838,0.689304,0.11774069,0.2573772,0.40186614,0.545133,-0.041119333,0.25609568,0.46636817,0.21857691,-0.25694564,-0.2010564,0.12658745,808.6813400000003,796.1905,800.6227,927.9487,654.7619,0.18365478515625,0.06097412109375,1.00579833984375,1.71966552734375,-3.237457275390625,0.418701171875,31.0,34.0,-3.0
764.4168734491316,40.220979425735024,,,,,,,23.226289834162912,23.301206928047968,0.0526165510243823,0.030384323843302124,769.2307692307692,45.61846153846145,0.059303999999999885,61.53846153846154,4.516129032258063,37.41935483870968,11.071428571428573,125.0,,,0.03079841289119756,0.01817855174780151,0.0004814231407921245,1.6942170816727622,0.6227136442118694,0.3675524529578237,-4.0075128552430765,2021-09-24 15:14:45,2021-09-24 15:14:45.039,0.25547627,-0.34786037,0.16750059,0.44737524,0.39611942,-0.37763563,0.018189525,0.40506506,0.47383782,-0.015495588999999999,0.18545112,0.43682668,0.46701542,0.008755163,0.10798899,0.46091554,0.25119987,-0.23517808,-0.17312297,0.05466427,825.2015,807.47253,794.9817,992.01465,1031.9048,0.18499755859375,0.0584716796875,1.0052490234375,1.83929443359375,-3.745880126953125,-0.40374755859375,38.0,42.0,-4.0
764.6942800788954,40.097912183300316,,,,,,,23.06037454623485,23.132499435853248,0.05243652689433393,0.030156331944650682,769.2307692307692,45.61846153846145,0.059303999999999885,61.53846153846154,4.487179487179487,36.53846153846153,10.4,117.1875,,,0.030490051562219338,0.01849891285116649,0.00047715545806851795,1.648207751856981,0.6163825188119187,0.3739713747356551,-3.990043313426388,2021-09-24 15:14:46,2021-09-24 15:14:46.021,0.6538053,-0.13610332,0.3495552,0.6368748000000001,0.58785355,-0.2991277,0.12197304,0.5814113000000001,0.5971824,0.00011719921,0.20691422,0.6180594,0.5333344,-0.05042403,0.062133747999999996,0.5389425999999999,0.22971915,-0.3512625,-0.14104481,0.21888188,782.49084,801.02563,800.6227,640.2564,502.05127000000016,0.18359375,0.0643310546875,1.017578125,2.654266357421875,-3.970184326171875,0.46356201171875,45.0,47.0,-2.0
764.9408284023668,39.9105736825526,,,,,,,23.093459749111084,23.166979704303678,0.052174720188368905,0.030189864224326225,769.2307692307692,45.61846153846145,0.059303999999999885,55.76923076923072,4.487179487179487,36.53846153846153,10.4,117.1875,,,0.03034495403094665,0.018809435189097886,0.0004729267077752701,1.6132836380187987,0.6114566839577162,0.3790137515487474,-3.973396663281219,2021-09-24 15:14:47,2021-09-24 15:14:47.001,0.08902812,-0.3654087,-0.13838658,0.053813346,0.21581258,-0.33884123,-0.08949201,0.12874171,0.6960367,-0.15055022,0.064655036,0.44187889,0.40876698,-0.123510286,0.13515039,0.49815947,0.16325465,-0.38664734,-0.12710164,0.25152826,827.2161,805.4579,798.20514,962.6007,870.32965,0.18951416015625,0.06060791015625,1.01007080078125,2.175750732421875,-3.551483154296875,-1.03179931640625,53.0,44.0,9.0
765.3598014888339,39.732972857049205,,,,,,,23.16831718934947,23.243853311086458,0.05191410991243296,0.030271144557475795,769.2307692307692,45.61846153846145,0.059303999999999885,53.84615384615381,4.516129032258063,36.774193548387096,10.333333333333334,117.1875,,,0.030209094961069726,0.01911061742879756,0.00046703007921012365,1.5807492915193837,0.6067698640824437,0.3838495246132478,-3.9575112120526414,2021-09-24 15:14:48,2021-09-24 15:14:48.000,-0.12594128,-0.45760209999999996,-0.06303554,-0.17822072,0.17853191,-0.52636397,0.22637606,0.19496478,0.5804159000000001,-0.14150119,0.3198324,0.29184055,0.46060508,-0.24123934,0.15612152,0.46109659999999997,0.2910528,-0.5152734,-0.3146704,0.28053728,811.9048,804.2491,802.6374,912.6374,1031.5018,0.1875,0.06390380859375,1.0108642578125,2.03369140625,-3.701019287109375,-0.25421142578125,56.00000000000001,47.0,9.000000000000009
765.2859960552271,39.61532129882126,,,,,,,23.126497619721654,23.201408730710433,0.05176538118170715,0.030219418281440407,769.2307692307692,45.61846153846145,0.059303999999999885,53.84615384615381,4.487179487179487,36.53846153846153,10.4,117.1875,,,0.028299812476035264,0.01832723163728509,0.0004311076469607952,1.5441400554168727,0.6013795998660824,0.3894592318594621,-3.9993672575990216,2021-09-24 15:14:49,2021-09-24 15:14:49.002,-0.090829276,-0.30911756,-0.23559752,-0.22158751,0.25096565,-0.54331535,0.08981282,0.040934958,0.43105325,-0.005813455699999999,0.31378870000000003,0.38584292,0.40024567,-0.16024648,0.15919268,0.48668409999999995,0.18453015,-0.5492792,-0.39380342,0.18943168,819.9634,803.0403,792.1612,950.9158,1099.597,0.1883544921875,0.05426025390625,1.00341796875,1.846771240234375,-3.70849609375,0.04486083984375,59.0,47.0,12.0
765.7071960297768,39.56692000387785,,,,,,,23.1517269135454,23.22461385478682,0.05167369486539233,0.03023574420299045,769.2307692307692,45.61846153846145,0.059303999999999885,53.84615384615381,4.516129032258063,36.129032258064505,10.333333333333334,117.1875,,,0.02667846237940932,0.017569056684498437,0.0004005636868630952,1.5184914511060976,0.5975276145300711,0.3935008090396694,-4.041616067211435,2021-09-24 15:14:50,2021-09-24 15:14:50.007,0.19665015,-0.09746288,0.09744148,0.21338658,0.21556218,-0.17828949,-0.022773368,0.14580041,0.7435036,0.22338107,0.24721031,0.39899915,0.34680825,-0.09200296,0.07547675,0.43885148,0.14608121,-0.54714674,-0.28183395,0.13690111,670.07324,804.65204,800.2198,749.0476,955.7509,0.18621826171875,0.05792236328125,1.0032958984375,2.355194091796875,-3.529052734375,-1.069183349609375,56.00000000000001,50.0,6.000000000000008
766.0545905707196,39.358053847394665,,,,,,,23.1517269135454,23.224613854786817,0.05137760980986023,0.03022203273567892,769.2307692307692,45.61846153846145,0.059303999999999885,53.84615384615381,4.516129032258063,36.129032258064505,10.333333333333334,117.1875,,,0.02559896237428731,0.01716968078342338,0.00037667069936923837,1.4909399130473093,0.593319646696385,0.3979500726382113,-4.064610195775957,2021-09-24 15:14:51,2021-09-24 15:14:51.000,0.63686603,0.27129358,0.8679328000000002,0.50951946,0.2944363,-0.0047276528,0.5762879,0.4870409000000001,0.706256,0.21002732,0.37250432,0.14245103,0.55800945,-0.027720682000000003,0.07347468,0.6240707,0.05159679,-0.35442066,-0.20033556,0.1681693,777.6557,803.8461,798.60803,590.293,650.32965,0.19012451171875,0.064208984375,1.01092529296875,2.19818115234375,-3.760833740234375,0.2392578125,51.0,53.0,-2.0
765.9763313609468,39.24306197265772,,,,,,,22.910899891587327,22.982523129270128,0.05123273444093592,0.02991071519257056,769.2307692307692,45.61846153846145,0.059303999999999885,53.84615384615381,3.8461538461538463,35.8974358974359,10.4,117.1875,,,0.024584217397449537,0.016695775611681854,0.0003560811547268053,1.4724813012129985,0.5904547412587146,0.4009930318112092,-4.092599548942864,2021-09-24 15:14:52,2021-09-24 15:14:52.004,0.63686603,0.08077058,0.7104661,1.2445457,0.2944363,-0.0017281194,0.39688993,0.9915499,0.706256,0.10093917,0.5086113,0.6781418,0.55800945,-0.20534363,0.057697017,0.52997226,0.05159679,-0.49290603,-0.339679,0.16053928,808.6813400000003,796.5934,792.1612,921.9048,899.34064,0.18798828125,0.0572509765625,1.00274658203125,1.31591796875,-3.013153076171875,0.01495361328125,45.0,56.99999999999999,-11.999999999999993
765.7071960297768,39.469691353290685,,,,,,,23.01022662796978,23.08443068673688,0.05154671597438636,0.03005094734289915,769.2307692307692,45.61846153846145,0.059303999999999885,53.84615384615381,3.870967741935484,36.129032258064505,10.333333333333334,117.1875,,,0.02263353522228266,0.015530257329517131,0.00032320476363021516,1.4573831419563723,0.5880826461150956,0.40351958876487415,-4.164965072125134,2021-09-24 15:14:53,2021-09-24 15:14:53.009,0.8227809000000001,-0.41827020000000004,0.3522223,0.9770023000000001,0.66259605,-0.318894,0.27021134,0.79808044,0.7771637,-0.12406609,0.4367611,0.9014135,0.6102057,-0.07711849999999999,0.029765526,0.4742221,0.28254715,-0.44117606,-0.31789485,0.16932979999999995,775.2381,799.0110000000003,796.99634,606.8132,732.52747,0.18841552734375,0.0543212890625,1.001220703125,1.682281494140625,-3.15521240234375,0.411224365234375,43.0,61.0,-18.0
765.6079404466502,39.49957542150911,,,,,,,23.03526042680905,23.10992744987379,0.05159243175882597,0.03008754116809505,769.2307692307692,45.61846153846145,0.059303999999999885,53.84615384615381,3.870967741935484,36.129032258064505,10.333333333333334,117.1875,,,0.02120270971609408,0.014668244056416938,0.00029930385653804487,1.4454838380479835,0.5861918356662674,0.4055333032694956,-4.222070390213842,2021-09-24 15:14:54,2021-09-24 15:14:54.046,0.37232113,-0.65173894,-0.13393714,0.24360605,0.23137452,-0.29016408,-0.21762693,0.29168275,0.7792710999999999,0.02311525,-0.117930196,0.7081668999999999,0.70402586,-0.09813377,0.056425054,0.6083903,0.21085979,-0.5730593,-0.43104678,0.10002046,778.46155,804.65204,796.5934,699.8901400000003,428.31503,0.191650390625,0.05914306640625,1.0037841796875,1.8841552734375,-3.57391357421875,-0.186920166015625,41.0,57.99999999999999,-16.999999999999993
765.7297830374754,39.40135101854528,,,,,,,22.935879982479843,23.00828739142702,0.05145594685144556,0.029952968384615312,769.2307692307692,45.61846153846145,0.059303999999999885,53.84615384615381,3.8461538461538463,35.8974358974359,9.75,117.1875,,,0.01952527534056222,0.013607040772837288,0.0002735272892009538,1.4349391367694773,0.5844868248122808,0.4073251679009564,-4.297167916317458,2021-09-24 15:14:55,2021-09-24 15:14:55.000,0.16220894,-0.5193747999999999,-0.41350108,-0.18981495,0.021560736,-0.40318677,-0.47011197,0.2004255,0.6443776999999999,-0.10819775,-0.041392885,0.5863854000000001,0.80350536,-0.25271812,0.09495807,0.7526632,0.09733477,-0.48368922,-0.39293632,0.15905768,781.685,796.5934,799.0110000000003,628.5714,728.0952,0.19305419921875,0.060546875,1.0108642578125,1.86920166015625,-3.409423828125,-0.067291259765625,46.0,52.0,-6.0
766.3523573200991,39.28341052141205,,,,,,,22.901430620717225,22.969536347035607,0.051260246212048485,0.02988368261931435,769.2307692307692,45.61846153846145,0.059303999999999885,53.84615384615381,3.870967741935484,35.483870967741936,9.117647058823527,117.1875,,,0.018508414253582902,0.012946201048381241,0.00025982611098235764,1.4296405705747286,0.5835957825203056,0.4082115424897986,-4.34695288921104,2021-09-24 15:14:56,2021-09-24 15:14:56.001,0.14789109,-0.47999248,0.09732213,0.026569297999999998,-0.02423196,-0.32849193,0.027177365,0.14219002,0.6265029000000001,0.025037674,0.08704161,0.4659938,0.5521471,-0.02462403,0.19132936,0.56171083,0.048391234000000005,-0.3718659,-0.39865029999999996,0.096127905,787.7289400000003,794.57874,810.293,893.69965,837.6923,0.1934814453125,0.05877685546875,1.009521484375,2.534637451171875,-3.207550048828125,-1.009368896484375,53.0,51.0,2.0
766.8486352357321,38.92397070218273,,,,,,,22.90981788729423,22.979100941404976,0.05075834905830843,0.02987528025038692,769.2307692307692,34.21384615384618,0.04447800000000002,53.84615384615381,3.870967741935484,35.483870967741936,9.117647058823527,117.1875,,,0.017698967750343762,0.012405155898593086,0.0002520846039603835,1.426742871675725,0.5830427701277399,0.40865301078599375,-4.389643094517656,2021-09-24 15:14:57,2021-09-24 15:14:57.002,-0.029100807000000006,-0.5357453000000001,0.11884572,0.25535944,0.12188373,-0.2629132,0.049516566,0.40088317,1.0697256000000002,0.35368234,0.39164418,1.193022,0.6206349,0.1599234,0.09659795,0.64983356,0.14940485,-0.2954175,-0.36149347,0.086031355,807.0696,805.4579,798.60803,814.3223,967.4359,0.18975830078125,0.0565185546875,1.00445556640625,2.400054931640625,-3.775787353515625,-0.515899658203125,57.99999999999999,50.0,7.999999999999992
767.5930521091813,38.251043341853205,,,,,,,22.901430620717225,22.971722891131396,0.04983245124059881,0.029835380294009964,769.2307692307692,34.21384615384618,0.04447800000000002,49.99999999999989,3.870967741935484,35.483870967741936,9.117647058823527,117.1875,,,0.016977320558649242,0.011892726656779908,0.0002470456902587862,1.4275381120418391,0.5830705906540818,0.4084448504286189,-4.431828271039378,2021-09-24 15:14:58,2021-09-24 15:14:58.013,-0.03858696,-0.7083001999999999,-0.010773805,0.21158215,0.19182007,-0.24873307,0.15262339,0.2849195,1.0163426,0.20133443,0.37156188,1.1926916,0.50653106,-0.11437438,0.07929434,0.61716324,-0.02205092,-0.42614624,-0.40890887,0.13366602,823.9927,799.81683,794.57874,992.8205,1168.4982,0.19683837890625,0.05419921875,1.00579833984375,1.136474609375,-3.46923828125,-0.515899658203125,59.0,56.00000000000001,2.9999999999999933
768.1389578163772,37.770400759079024,,,,,,,22.934961283799282,23.003186080857407,0.049171312527163856,0.029857828522325595,769.2307692307692,34.21384615384618,0.04447800000000002,46.15384615384608,3.870967741935484,35.483870967741936,9.117647058823527,117.1875,,,0.016417716305846042,0.011471813617883488,0.000246321761905855,1.4311352025674784,0.5835158817754227,0.4077293890392649,-4.467862241954595,2021-09-24 15:14:59,2021-09-24 15:14:59.000,-0.03805482,-0.56704676,0.04311605,0.19499712,0.08848061,-0.2958232,0.130359,0.16655514,0.41715497,0.12821941,0.32250047,0.5744998,0.4195428,-0.0648096,0.048408377999999995,0.380226,0.008655218000000001,-0.4841084,-0.27990508,0.19021781,824.7985,800.6227,809.8901400000003,1002.0879,973.4798599999999,0.1927490234375,0.0570068359375,1.00311279296875,2.041168212890625,-3.2000732421875,-0.964508056640625,56.99999999999999,64.0,-7.000000000000008
